#SUBSTANCE=Askja ash
#DESCRIPTION=Ash from Askja volcanic eruption, 1875 layer C
#REFERENCE=Reed, B.E., D.M. Peters, R. McPheat and R.G. Grainger, The complex refractive index of volcanic ash aerosol retrieved from spectral mass extinction, Journal of Geophysical Research: Atmospheres, 123, 1339-1350, 2018.
#DOI=10.1002/2017JD027362
#FORMAT=WAVN N K
       528.00000       1.8896379      0.71843118
       529.00000       1.8665286      0.71452751
       530.00000       1.8441795      0.70862661
       531.00000       1.8228401      0.70088022
       532.00000       1.8027222      0.69147804
       533.00000       1.7839941      0.68063691
       534.00000       1.7667778      0.66858953
       535.00000       1.7511501      0.65557358
       536.00000       1.7371450      0.64182233
       537.00000       1.7247591      0.62755701
       538.00000       1.7139573      0.61298114
       539.00000       1.7046789      0.59827692
       540.00000       1.6968445      0.58360323
       541.00000       1.6903611      0.56909514
       542.00000       1.6851273      0.55486444
       543.00000       1.6810381      0.54100105
       544.00000       1.6779878      0.52757489
       545.00000       1.6758730      0.51463801
       546.00000       1.6745949      0.50222692
       547.00000       1.6740603      0.49036484
       548.00000       1.6741830      0.47906393
       549.00000       1.6748841      0.46832728
       550.00000       1.6760924      0.45815078
       551.00000       1.6777442      0.44852479
       552.00000       1.6797835      0.43943557
       553.00000       1.6821610      0.43086660
       554.00000       1.6848343      0.42279961
       555.00000       1.6877671      0.41521553
       556.00000       1.6909285      0.40809529
       557.00000       1.6942927      0.40142041
       558.00000       1.6978383      0.39517355
       559.00000       1.7015475      0.38933887
       560.00000       1.7054060      0.38390241
       561.00000       1.7094018      0.37885222
       562.00000       1.7135253      0.37417859
       563.00000       1.7177682      0.36987406
       564.00000       1.7221236      0.36593352
       565.00000       1.7265852      0.36235409
       566.00000       1.7311469      0.35913515
       567.00000       1.7358024      0.35627821
       568.00000       1.7405452      0.35378679
       569.00000       1.7453679      0.35166629
       570.00000       1.7502621      0.34992387
       571.00000       1.7552178      0.34856825
       572.00000       1.7602237      0.34760957
       573.00000       1.7652665      0.34705923
       574.00000       1.7703307      0.34692969
       575.00000       1.7753984      0.34723424
       576.00000       1.7804492      0.34798684
       577.00000       1.7854594      0.34920182
       578.00000       1.7904021      0.35089360
       579.00000       1.7952468      0.35307635
       580.00000       1.7999588      0.35576354
       581.00000       1.8044990      0.35896743
       582.00000       1.8088234      0.36269844
       583.00000       1.8128827      0.36696434
       584.00000       1.8166221      0.37176925
       585.00000       1.8199806      0.37711246
       586.00000       1.8228911      0.38298686
       587.00000       1.8252803      0.38937715
       588.00000       1.8270689      0.39625762
       589.00000       1.8281729      0.40358950
       590.00000       1.8285047      0.41131807
       591.00000       1.8279762      0.41936958
       592.00000       1.8265029      0.42764825
       593.00000       1.8240097      0.43603415
       594.00000       1.8204381      0.44438247
       595.00000       1.8157551      0.45252532
       596.00000       1.8099623      0.46027691
       597.00000       1.8031040      0.46744269
       598.00000       1.7952721      0.47383222
       599.00000       1.7866065      0.47927454
       600.00000       1.7772886      0.48363380
       601.00000       1.7675297      0.48682216
       602.00000       1.7575543      0.48880728
       603.00000       1.7475814      0.48961297
       604.00000       1.7378083      0.48931280
       605.00000       1.7283977      0.48801851
       606.00000       1.7194713      0.48586564
       607.00000       1.7111088      0.48299929
       608.00000       1.7033517      0.47956192
       609.00000       1.6962098      0.47568456
       610.00000       1.6896692      0.47148153
       611.00000       1.6836998      0.46704827
       612.00000       1.6782621      0.46246159
       613.00000       1.6733122      0.45778134
       614.00000       1.6688055      0.45305281
       615.00000       1.6646990      0.44830942
       616.00000       1.6609523      0.44357508
       617.00000       1.6575287      0.43886627
       618.00000       1.6543950      0.43419362
       619.00000       1.6515210      0.42956305
       620.00000       1.6488802      0.42497654
       621.00000       1.6464489      0.42043265
       622.00000       1.6442066      0.41592691
       623.00000       1.6421364      0.41145207
       624.00000       1.6402249      0.40699858
       625.00000       1.6384630      0.40255500
       626.00000       1.6368460      0.39810875
       627.00000       1.6353743      0.39364700
       628.00000       1.6340530      0.38915771
       629.00000       1.6328926      0.38463084
       630.00000       1.6319077      0.38005959
       631.00000       1.6311169      0.37544156
       632.00000       1.6305417      0.37077979
       633.00000       1.6302047      0.36608349
       634.00000       1.6301286      0.36136842
       635.00000       1.6303342      0.35665697
       636.00000       1.6308392      0.35197770
       637.00000       1.6316563      0.34736469
       638.00000       1.6327925      0.34285640
       639.00000       1.6342479      0.33849447
       640.00000       1.6360147      0.33432233
       641.00000       1.6380777      0.33038371
       642.00000       1.6404136      0.32672128
       643.00000       1.6429911      0.32337520
       644.00000       1.6457715      0.32038185
       645.00000       1.6487093      0.31777256
       646.00000       1.6517521      0.31557239
       647.00000       1.6548420      0.31379889
       648.00000       1.6579161      0.31246090
       649.00000       1.6609078      0.31155720
       650.00000       1.6637479      0.31107528
       651.00000       1.6663669      0.31099009
       652.00000       1.6686968      0.31126295
       653.00000       1.6706743      0.31184089
       654.00000       1.6722438      0.31265657
       655.00000       1.6733620      0.31362900
       656.00000       1.6740009      0.31466556
       657.00000       1.6741522      0.31566524
       658.00000       1.6738303      0.31652338
       659.00000       1.6730740      0.31713757
       660.00000       1.6719461      0.31741449
       661.00000       1.6705313      0.31727669
       662.00000       1.6689313      0.31666871
       663.00000       1.6672584      0.31556144
       664.00000       1.6656269      0.31395406
       665.00000       1.6641454      0.31187314
       666.00000       1.6629092      0.30936900
       667.00000       1.6619945      0.30650991
       668.00000       1.6614559      0.30337494
       669.00000       1.6613253      0.30004656
       670.00000       1.6616151      0.29660409
       671.00000       1.6623213      0.29311886
       672.00000       1.6634298      0.28965152
       673.00000       1.6649207      0.28625181
       674.00000       1.6667737      0.28296048
       675.00000       1.6689702      0.27981270
       676.00000       1.6714943      0.27684209
       677.00000       1.6743306      0.27408431
       678.00000       1.6774615      0.27157921
       679.00000       1.6808626      0.26937093
       680.00000       1.6844986      0.26750574
       681.00000       1.6883202      0.26602778
       682.00000       1.6922627      0.26497337
       683.00000       1.6962476      0.26436453
       684.00000       1.7001859      0.26420256
       685.00000       1.7039845      0.26446272
       686.00000       1.7075557      0.26509088
       687.00000       1.7108276      0.26600355
       688.00000       1.7137565      0.26709242
       689.00000       1.7163371      0.26823418
       690.00000       1.7186089      0.26930531
       691.00000       1.7206567      0.27019970
       692.00000       1.7226020      0.27084590
       693.00000       1.7245890      0.27121960
       694.00000       1.7267651      0.27134890
       695.00000       1.7292629      0.27131120
       696.00000       1.7321857      0.27122388
       697.00000       1.7355988      0.27123156
       698.00000       1.7395267      0.27149346
       699.00000       1.7439541      0.27217290
       700.00000       1.7488293      0.27343008
       701.00000       1.7540669      0.27541761
       702.00000       1.7595497      0.27827778
       703.00000       1.7651281      0.28214018
       704.00000       1.7706192      0.28711849
       705.00000       1.7758040      0.29330654
       706.00000       1.7804240      0.30077464
       707.00000       1.7841724      0.30956656
       708.00000       1.7866705      0.31969110
       709.00000       1.7874272      0.33108757
       710.00000       1.7857977      0.34352768
       711.00000       1.7810174      0.35642812
       712.00000       1.7724346      0.36863513
       713.00000       1.7599989      0.37840865
       714.00000       1.7447718      0.38389539
       715.00000       1.7289136      0.38402559
       716.00000       1.7148807      0.37916523
       717.00000       1.7043912      0.37090067
       718.00000       1.6979703      0.36119517
       719.00000       1.6952069      0.35165551
       720.00000       1.6952661      0.34327327
       721.00000       1.6972739      0.33651285
       722.00000       1.7004891      0.33150361
       723.00000       1.7043342      0.32820017
       724.00000       1.7083652      0.32647875
       725.00000       1.7122298      0.32618150
       726.00000       1.7156340      0.32712897
       727.00000       1.7183222      0.32911574
       728.00000       1.7200703      0.33189819
       729.00000       1.7206930      0.33517944
       730.00000       1.7200680      0.33859750
       731.00000       1.7181763      0.34172747
       732.00000       1.7151538      0.34411488
       733.00000       1.7113261      0.34535281
       734.00000       1.7071883      0.34518940
       735.00000       1.7033078      0.34361510
       736.00000       1.7001798      0.34086962
       737.00000       1.6981116      0.33735323
       738.00000       1.6971919      0.33349175
       739.00000       1.6973485      0.32962810
       740.00000       1.6984445      0.32598440
       741.00000       1.7003565      0.32269108
       742.00000       1.7030039      0.31984720
       743.00000       1.7063282      0.31757035
       744.00000       1.7102498      0.31601121
       745.00000       1.7146306      0.31533361
       746.00000       1.7192578      0.31567477
       747.00000       1.7238540      0.31709969
       748.00000       1.7281153      0.31956017
       749.00000       1.7317823      0.32287899
       750.00000       1.7347248      0.32679421
       751.00000       1.7369768      0.33107776
       752.00000       1.7386468      0.33566137
       753.00000       1.7397325      0.34063741
       754.00000       1.7399942      0.34607723
       755.00000       1.7390433      0.35179005
       756.00000       1.7366190      0.35723429
       757.00000       1.7328621      0.36168973
       758.00000       1.7283741      0.36459793
       759.00000       1.7240097      0.36585053
       760.00000       1.7205307      0.36585655
       761.00000       1.7183085      0.36537727
       762.00000       1.7171837      0.36522139
       763.00000       1.7165271      0.36589780
       764.00000       1.7155325      0.36733552
       765.00000       1.7137077      0.36886818
       766.00000       1.7112863      0.36966498
       767.00000       1.7091085      0.36941520
       768.00000       1.7079165      0.36862148
       769.00000       1.7077295      0.36812306
       770.00000       1.7079574      0.36833375
       771.00000       1.7080929      0.36899529
       772.00000       1.7082176      0.36965185
       773.00000       1.7088182      0.37026971
       774.00000       1.7102220      0.37134308
       775.00000       1.7122918      0.37355547
       776.00000       1.7144370      0.37747523
       777.00000       1.7156615      0.38330364
       778.00000       1.7148173      0.39050773
       779.00000       1.7113015      0.39773574
       780.00000       1.7056759      0.40351643
       781.00000       1.6993526      0.40731984
       782.00000       1.6934331      0.40984053
       783.00000       1.6878970      0.41212980
       784.00000       1.6819233      0.41454251
       785.00000       1.6748335      0.41647647
       786.00000       1.6667759      0.41692218
       787.00000       1.6586958      0.41528792
       788.00000       1.6516813      0.41181578
       789.00000       1.6463495      0.40730601
       790.00000       1.6427445      0.40260759
       791.00000       1.6405571      0.39833218
       792.00000       1.6393506      0.39480121
       793.00000       1.6387395      0.39207525
       794.00000       1.6385462      0.39012178
       795.00000       1.6387073      0.38909809
       796.00000       1.6388863      0.38936658
       797.00000       1.6382736      0.39102000
       798.00000       1.6360493      0.39340476
       799.00000       1.6321361      0.39537347
       800.00000       1.6273514      0.39616017
       801.00000       1.6226547      0.39599602
       802.00000       1.6181784      0.39568644
       803.00000       1.6132434      0.39549327
       804.00000       1.6074234      0.39479493
       805.00000       1.6010999      0.39294934
       806.00000       1.5948826      0.38987944
       807.00000       1.5891865      0.38577607
       808.00000       1.5843417      0.38098758
       809.00000       1.5803352      0.37611585
       810.00000       1.5765347      0.37144574
       811.00000       1.5724209      0.36634289
       812.00000       1.5685545      0.35993261
       813.00000       1.5661847      0.35232068
       814.00000       1.5660507      0.34465776
       815.00000       1.5678669      0.33833215
       816.00000       1.5704543      0.33424307
       817.00000       1.5722919      0.33223551
       818.00000       1.5724998      0.33115740
       819.00000       1.5713368      0.32983969
       820.00000       1.5695449      0.32794754
       821.00000       1.5674441      0.32573012
       822.00000       1.5648842      0.32328387
       823.00000       1.5617269      0.32035303
       824.00000       1.5580974      0.31655641
       825.00000       1.5543844      0.31162147
       826.00000       1.5511007      0.30555498
       827.00000       1.5486463      0.29865909
       828.00000       1.5471591      0.29135660
       829.00000       1.5465361      0.28403133
       830.00000       1.5464580      0.27689707
       831.00000       1.5465709      0.26982367
       832.00000       1.5467911      0.26242323
       833.00000       1.5474188      0.25431328
       834.00000       1.5491017      0.24542157
       835.00000       1.5524786      0.23625878
       836.00000       1.5576987      0.22770450
       837.00000       1.5643908      0.22057735
       838.00000       1.5717775      0.21546888
       839.00000       1.5786809      0.21246192
       840.00000       1.5840100      0.21067207
       841.00000       1.5877948      0.20858874
       842.00000       1.5912878      0.20553478
       843.00000       1.5953901      0.20229166
       844.00000       1.5996236      0.19972626
       845.00000       1.6031008      0.19755464
       846.00000       1.6057828      0.19485077
       847.00000       1.6083723      0.19114802
       848.00000       1.6115323      0.18658321
       849.00000       1.6157093      0.18152073
       850.00000       1.6211731      0.17655844
       851.00000       1.6277207      0.17245198
       852.00000       1.6346142      0.16959751
       853.00000       1.6411134      0.16768820
       854.00000       1.6470707      0.16605576
       855.00000       1.6528722      0.16436911
       856.00000       1.6587762      0.16282202
       857.00000       1.6645644      0.16156608
       858.00000       1.6700174      0.16023877
       859.00000       1.6755364      0.15833812
       860.00000       1.6819448      0.15600778
       861.00000       1.6896237      0.15412892
       862.00000       1.6980732      0.15357224
       863.00000       1.7063168      0.15449182
       864.00000       1.7136655      0.15625243
       865.00000       1.7202303      0.15800438
       866.00000       1.7267009      0.15944361
       867.00000       1.7335900      0.16095270
       868.00000       1.7408666      0.16304462
       869.00000       1.7482595      0.16597018
       870.00000       1.7555201      0.16986712
       871.00000       1.7622459      0.17486231
       872.00000       1.7678360      0.18071679
       873.00000       1.7720660      0.18667402
       874.00000       1.7754574      0.19217982
       875.00000       1.7785441      0.19745423
       876.00000       1.7812302      0.20286206
       877.00000       1.7832545      0.20837319
       878.00000       1.7844856      0.21387593
       879.00000       1.7846820      0.21916702
       880.00000       1.7837474      0.22367396
       881.00000       1.7821339      0.22677468
       882.00000       1.7806861      0.22832334
       883.00000       1.7801125      0.22879432
       884.00000       1.7806019      0.22894543
       885.00000       1.7818098      0.22941702
       886.00000       1.7830366      0.23035534
       887.00000       1.7838087      0.23125602
       888.00000       1.7843008      0.23150159
       889.00000       1.7850525      0.23085375
       890.00000       1.7866008      0.22949345
       891.00000       1.7892252      0.22785951
       892.00000       1.7929645      0.22640125
       893.00000       1.7976526      0.22559647
       894.00000       1.8027713      0.22569674
       895.00000       1.8079422      0.22641510
       896.00000       1.8133396      0.22754357
       897.00000       1.8190606      0.22935262
       898.00000       1.8248382      0.23205739
       899.00000       1.8303766      0.23570571
       900.00000       1.8352493      0.24025899
       901.00000       1.8390349      0.24526888
       902.00000       1.8417915      0.25009512
       903.00000       1.8439231      0.25437864
       904.00000       1.8458582      0.25808677
       905.00000       1.8478655      0.26138868
       906.00000       1.8500543      0.26447071
       907.00000       1.8524321      0.26750802
       908.00000       1.8549368      0.27057432
       909.00000       1.8575907      0.27371481
       910.00000       1.8603787      0.27706963
       911.00000       1.8631668      0.28077300
       912.00000       1.8656842      0.28485018
       913.00000       1.8676927      0.28904545
       914.00000       1.8692509      0.29300624
       915.00000       1.8706321      0.29653585
       916.00000       1.8721643      0.29967337
       917.00000       1.8740505      0.30267897
       918.00000       1.8761958      0.30587400
       919.00000       1.8782894      0.30926732
       920.00000       1.8803250      0.31257873
       921.00000       1.8826127      0.31581500
       922.00000       1.8852125      0.31932261
       923.00000       1.8878532      0.32325370
       924.00000       1.8904141      0.32751753
       925.00000       1.8928890      0.33219264
       926.00000       1.8950075      0.33743132
       927.00000       1.8963007      0.34302297
       928.00000       1.8966490      0.34836143
       929.00000       1.8963819      0.35303157
       930.00000       1.8958228      0.35682495
       931.00000       1.8955720      0.35957705
       932.00000       1.8962916      0.36190310
       933.00000       1.8975446      0.36457346
       934.00000       1.8988632      0.36716383
       935.00000       1.9009278      0.36960675
       936.00000       1.9035720      0.37287364
       937.00000       1.9057297      0.37668826
       938.00000       1.9078398      0.38005083
       939.00000       1.9108496      0.38357321
       940.00000       1.9142263      0.38820200
       941.00000       1.9171250      0.39383286
       942.00000       1.9191663      0.39995552
       943.00000       1.9203665      0.40605796
       944.00000       1.9209404      0.41173475
       945.00000       1.9214366      0.41676069
       946.00000       1.9223763      0.42150378
       947.00000       1.9237702      0.42657382
       948.00000       1.9251133      0.43237636
       949.00000       1.9257139      0.43873619
       950.00000       1.9252481      0.44486383
       951.00000       1.9243805      0.44999145
       952.00000       1.9240413      0.45458179
       953.00000       1.9237213      0.45941206
       954.00000       1.9229314      0.46349279
       955.00000       1.9233886      0.46653572
       956.00000       1.9252863      0.47087093
       957.00000       1.9259444      0.47650026
       958.00000       1.9257893      0.48049705
       959.00000       1.9280540      0.48377963
       960.00000       1.9315830      0.48984031
       961.00000       1.9329478      0.49756646
       962.00000       1.9332676      0.50403609
       963.00000       1.9347398      0.51063890
       964.00000       1.9356514      0.51898026
       965.00000       1.9348039      0.52734963
       966.00000       1.9334790      0.53503428
       967.00000       1.9316869      0.54273444
       968.00000       1.9291556      0.54977542
       969.00000       1.9269027      0.55616722
       970.00000       1.9245804      0.56288739
       971.00000       1.9214171      0.56918783
       972.00000       1.9183655      0.57454885
       973.00000       1.9154884      0.57974390
       974.00000       1.9124407      0.58402952
       975.00000       1.9108811      0.58741810
       976.00000       1.9106777      0.59209864
       977.00000       1.9097222      0.59793203
       978.00000       1.9082512      0.60323382
       979.00000       1.9076098      0.60840328
       980.00000       1.9073970      0.61470086
       981.00000       1.9062995      0.62194838
       982.00000       1.9043126      0.62880963
       983.00000       1.9027118      0.63540839
       984.00000       1.9009821      0.64287550
       985.00000       1.8983116      0.65031005
       986.00000       1.8957977      0.65749226
       987.00000       1.8929233      0.66551975
       988.00000       1.8887754      0.67332425
       989.00000       1.8845915      0.68042744
       990.00000       1.8801945      0.68799827
       991.00000       1.8744263      0.69524882
       992.00000       1.8683546      0.70089312
       993.00000       1.8632982      0.70594798
       994.00000       1.8583755      0.71140487
       995.00000       1.8532781      0.71645603
       996.00000       1.8486688      0.72157073
       997.00000       1.8434695      0.72700969
       998.00000       1.8380083      0.73134821
       999.00000       1.8338320      0.73535675
       1000.0000       1.8301589      0.74054627
       1001.0000       1.8256331      0.74650566
       1002.0000       1.8202231      0.75211677
       1003.0000       1.8148574      0.75712451
       1004.0000       1.8096842      0.76250800
       1005.0000       1.8033831      0.76804304
       1006.0000       1.7966555      0.77201705
       1007.0000       1.7912567      0.77553451
       1008.0000       1.7858698      0.77982008
       1009.0000       1.7802486      0.78355403
       1010.0000       1.7755017      0.78757275
       1011.0000       1.7699280      0.79252485
       1012.0000       1.7635514      0.79619501
       1013.0000       1.7588166      0.79928027
       1014.0000       1.7546515      0.80435410
       1015.0000       1.7482736      0.81035455
       1016.0000       1.7406015      0.81418054
       1017.0000       1.7350298      0.81679400
       1018.0000       1.7303126      0.82171271
       1019.0000       1.7230334      0.82737113
       1020.0000       1.7148827      0.83065157
       1021.0000       1.7086256      0.83311584
       1022.0000       1.7029125      0.83734602
       1023.0000       1.6951087      0.84205663
       1024.0000       1.6866148      0.84451679
       1025.0000       1.6801077      0.84624754
       1026.0000       1.6740573      0.84977793
       1027.0000       1.6660135      0.85360497
       1028.0000       1.6575040      0.85534151
       1029.0000       1.6505848      0.85652911
       1030.0000       1.6438162      0.85840290
       1031.0000       1.6371788      0.85975193
       1032.0000       1.6315540      0.86175751
       1033.0000       1.6250404      0.86483534
       1034.0000       1.6178738      0.86705014
       1035.0000       1.6114779      0.86936311
       1036.0000       1.6044286      0.87243936
       1037.0000       1.5968638      0.87498822
       1038.0000       1.5893459      0.87792155
       1039.0000       1.5803558      0.88089445
       1040.0000       1.5708228      0.88224765
       1041.0000       1.5618206      0.88298835
       1042.0000       1.5525924      0.88299308
       1043.0000       1.5445655      0.88185816
       1044.0000       1.5376997      0.88190107
       1045.0000       1.5293694      0.88246109
       1046.0000       1.5209190      0.88101290
       1047.0000       1.5146188      0.87930358
       1048.0000       1.5088192      0.87934892
       1049.0000       1.5017208      0.87989796
       1050.0000       1.4942986      0.87934384
       1051.0000       1.4879933      0.87874441
       1052.0000       1.4814161      0.87938250
       1053.0000       1.4735283      0.87959796
       1054.0000       1.4659569      0.87880629
       1055.0000       1.4585682      0.87825625
       1056.0000       1.4507165      0.87691980
       1057.0000       1.4442946      0.87481900
       1058.0000       1.4386396      0.87446152
       1059.0000       1.4310234      0.87459000
       1060.0000       1.4232165      0.87266988
       1061.0000       1.4172430      0.87080228
       1062.0000       1.4109572      0.87033607
       1063.0000       1.4037315      0.86937709
       1064.0000       1.3969817      0.86801007
       1065.0000       1.3899731      0.86702002
       1066.0000       1.3826132      0.86517894
       1067.0000       1.3763961      0.86298808
       1068.0000       1.3704961      0.86200257
       1069.0000       1.3634002      0.86135917
       1070.0000       1.3559198      0.85956259
       1071.0000       1.3496856      0.85751907
       1072.0000       1.3434922      0.85720582
       1073.0000       1.3349889      0.85705611
       1074.0000       1.3259842      0.85472109
       1075.0000       1.3182017      0.85209804
       1076.0000       1.3097249      0.84985393
       1077.0000       1.3009331      0.84616805
       1078.0000       1.2931907      0.84220892
       1079.0000       1.2846893      0.83837690
       1080.0000       1.2762750      0.83219843
       1081.0000       1.2710237      0.82560481
       1082.0000       1.2663327      0.82194411
       1083.0000       1.2590403      0.81826214
       1084.0000       1.2522774      0.81190977
       1085.0000       1.2481089      0.80596615
       1086.0000       1.2438226      0.80200972
       1087.0000       1.2382065      0.79789794
       1088.0000       1.2328593      0.79266346
       1089.0000       1.2287183      0.78751613
       1090.0000       1.2247862      0.78367116
       1091.0000       1.2193452      0.78016083
       1092.0000       1.2135059      0.77473915
       1093.0000       1.2099506      0.76881038
       1094.0000       1.2068450      0.76537259
       1095.0000       1.2010363      0.76207485
       1096.0000       1.1953750      0.75582309
       1097.0000       1.1927056      0.74982963
       1098.0000       1.1896713      0.74662978
       1099.0000       1.1839856      0.74295467
       1100.0000       1.1786244      0.73673449
       1101.0000       1.1753406      0.73051662
       1102.0000       1.1720356      0.72560403
       1103.0000       1.1678364      0.72024480
       1104.0000       1.1642704      0.71383634
       1105.0000       1.1617871      0.70768292
       1106.0000       1.1593754      0.70209431
       1107.0000       1.1568657      0.69630771
       1108.0000       1.1548917      0.69023924
       1109.0000       1.1535458      0.68436412
       1110.0000       1.1526478      0.67882773
       1111.0000       1.1520964      0.67369990
       1112.0000       1.1518302      0.66907762
       1113.0000       1.1515683      0.66507618
       1114.0000       1.1511109      0.66144618
       1115.0000       1.1505249      0.65806951
       1116.0000       1.1498134      0.65492482
       1117.0000       1.1489287      0.65194734
       1118.0000       1.1480037      0.64903865
       1119.0000       1.1470870      0.64641226
       1120.0000       1.1459539      0.64411498
       1121.0000       1.1444303      0.64202270
       1122.0000       1.1424973      0.63988663
       1123.0000       1.1402632      0.63760514
       1124.0000       1.1377887      0.63507059
       1125.0000       1.1352420      0.63218541
       1126.0000       1.1328857      0.62902845
       1127.0000       1.1307360      0.62588718
       1128.0000       1.1286354      0.62286494
       1129.0000       1.1263383      0.61996532
       1130.0000       1.1237177      0.61681797
       1131.0000       1.1211025      0.61316377
       1132.0000       1.1188722      0.60913031
       1133.0000       1.1170991      0.60506210
       1134.0000       1.1156633      0.60111511
       1135.0000       1.1144332      0.59739723
       1136.0000       1.1132103      0.59385726
       1137.0000       1.1119650      0.59023892
       1138.0000       1.1110898      0.58647006
       1139.0000       1.1106844      0.58301984
       1140.0000       1.1104702      0.58003427
       1141.0000       1.1103029      0.57763492
       1142.0000       1.1097406      0.57584068
       1143.0000       1.1084948      0.57415650
       1144.0000       1.1069015      0.57215977
       1145.0000       1.1052532      0.56996122
       1146.0000       1.1036198      0.56762859
       1147.0000       1.1020275      0.56529338
       1148.0000       1.1004114      0.56295934
       1149.0000       1.0987451      0.56066203
       1150.0000       1.0969696      0.55828299
       1151.0000       1.0952235      0.55580515
       1152.0000       1.0935343      0.55323975
       1153.0000       1.0920658      0.55072448
       1154.0000       1.0905770      0.54852162
       1155.0000       1.0887948      0.54640324
       1156.0000       1.0868623      0.54414858
       1157.0000       1.0848726      0.54186414
       1158.0000       1.0826662      0.53949641
       1159.0000       1.0803206      0.53678534
       1160.0000       1.0781510      0.53367875
       1161.0000       1.0763470      0.53038567
       1162.0000       1.0749581      0.52709921
       1163.0000       1.0739376      0.52406819
       1164.0000       1.0730706      0.52145909
       1165.0000       1.0720449      0.51922912
       1166.0000       1.0708101      0.51705333
       1167.0000       1.0696976      0.51493744
       1168.0000       1.0685867      0.51339395
       1169.0000       1.0666500      0.51222195
       1170.0000       1.0641479      0.51035917
       1171.0000       1.0622327      0.50824660
       1172.0000       1.0600312      0.50715178
       1173.0000       1.0559621      0.50560728
       1174.0000       1.0519822      0.50155156
       1175.0000       1.0505822      0.49717288
       1176.0000       1.0494870      0.49514869
       1177.0000       1.0460586      0.49303517
       1178.0000       1.0430649      0.48828914
       1179.0000       1.0430399      0.48399475
       1180.0000       1.0427784      0.48275433
       1181.0000       1.0396769      0.48142204
       1182.0000       1.0368086      0.47758216
       1183.0000       1.0362809      0.47433244
       1184.0000       1.0349238      0.47353678
       1185.0000       1.0310079      0.47207273
       1186.0000       1.0273395      0.46839896
       1187.0000       1.0250749      0.46477079
       1188.0000       1.0225169      0.46183060
       1189.0000       1.0194616      0.45825211
       1190.0000       1.0170064      0.45406696
       1191.0000       1.0150365      0.45009372
       1192.0000       1.0131170      0.44614637
       1193.0000       1.0115844      0.44211750
       1194.0000       1.0104011      0.43852933
       1195.0000       1.0089576      0.43528536
       1196.0000       1.0075181      0.43181827
       1197.0000       1.0066296      0.42873839
       1198.0000       1.0053023      0.42672491
       1199.0000       1.0026445      0.42460714
       1200.0000      0.99975917      0.42139415
       1201.0000      0.99751094      0.41806467
       1202.0000      0.99492771      0.41522365
       1203.0000      0.99158969      0.41183688
       1204.0000      0.98850012      0.40751654
       1205.0000      0.98602992      0.40307747
       1206.0000      0.98360879      0.39875769
       1207.0000      0.98118380      0.39412168
       1208.0000      0.97920201      0.38920676
       1209.0000      0.97768336      0.38446355
       1210.0000      0.97631895      0.38003990
       1211.0000      0.97490913      0.37585223
       1212.0000      0.97338441      0.37180498
       1213.0000      0.97168068      0.36781966
       1214.0000      0.96978456      0.36378265
       1215.0000      0.96773329      0.35960041
       1216.0000      0.96559794      0.35523077
       1217.0000      0.96342279      0.35066577
       1218.0000      0.96122367      0.34590377
       1219.0000      0.95902044      0.34088835
       1220.0000      0.95690693      0.33558986
       1221.0000      0.95497552      0.33006208
       1222.0000      0.95321607      0.32438516
       1223.0000      0.95161241      0.31854516
       1224.0000      0.95020251      0.31253596
       1225.0000      0.94903601      0.30639979
       1226.0000      0.94808872      0.30017722
       1227.0000      0.94739224      0.29384668
       1228.0000      0.94702018      0.28745849
       1229.0000      0.94700684      0.28116430
       1230.0000      0.94719263      0.27509239
       1231.0000      0.94743867      0.26919198
       1232.0000      0.94765481      0.26338167
       1233.0000      0.94785439      0.25752578
       1234.0000      0.94810623      0.25158204
       1235.0000      0.94848457      0.24554797
       1236.0000      0.94897754      0.23948888
       1237.0000      0.94954855      0.23333500
       1238.0000      0.95025589      0.22704483
       1239.0000      0.95117544      0.22057170
       1240.0000      0.95243616      0.21397588
       1241.0000      0.95407846      0.20732963
       1242.0000      0.95617949      0.20077277
       1243.0000      0.95860579      0.19445332
       1244.0000      0.96130406      0.18833871
       1245.0000      0.96420589      0.18252963
       1246.0000      0.96716048      0.17691198
       1247.0000      0.97027466      0.17141596
       1248.0000      0.97351125      0.16608411
       1249.0000      0.97694756      0.16083135
       1250.0000      0.98065377      0.15583878
       1251.0000      0.98445968      0.15110475
       1252.0000      0.98850243      0.14658109
       1253.0000      0.99271037      0.14254541
       1254.0000      0.99678418      0.13888176
       1255.0000       1.0008553      0.13543510
       1256.0000       1.0048774      0.13237414
       1257.0000       1.0086764      0.12953176
       1258.0000       1.0124486      0.12683021
       1259.0000       1.0161316      0.12446764
       1260.0000       1.0195648      0.12232687
       1261.0000       1.0228210      0.12039914
       1262.0000       1.0256824      0.11873846
       1263.0000       1.0280180      0.11701392
       1264.0000       1.0300303      0.11502571
       1265.0000       1.0318515      0.11272307
       1266.0000       1.0336630      0.11007741
       1267.0000       1.0355796      0.10717998
       1268.0000       1.0376860      0.10409007
       1269.0000       1.0400068      0.10098567
       1270.0000       1.0423660     0.097882034
       1271.0000       1.0448086     0.094618502
       1272.0000       1.0474730     0.091215106
       1273.0000       1.0504710     0.087708708
       1274.0000       1.0539401     0.084319449
       1275.0000       1.0576732     0.081294291
       1276.0000       1.0614882     0.078487401
       1277.0000       1.0655502     0.075890189
       1278.0000       1.0697445     0.073759830
       1279.0000       1.0737693     0.071953880
       1280.0000       1.0778010     0.070221592
       1281.0000       1.0820371     0.068841733
       1282.0000       1.0861075     0.068044631
       1283.0000       1.0897199     0.067473555
       1284.0000       1.0931493     0.066860509
       1285.0000       1.0965565     0.066434508
       1286.0000       1.0997118     0.066276234
       1287.0000       1.1025465     0.066205905
       1288.0000       1.1050914     0.066181491
       1289.0000       1.1072754     0.066081991
       1290.0000       1.1092396     0.065691997
       1291.0000       1.1112574     0.065019034
       1292.0000       1.1135069     0.064267612
       1293.0000       1.1159151     0.063737657
       1294.0000       1.1181677     0.063461364
       1295.0000       1.1201974     0.063188782
       1296.0000       1.1221638     0.062869231
       1297.0000       1.1241070     0.062580040
       1298.0000       1.1260283     0.062389315
       1299.0000       1.1278386     0.062384779
       1300.0000       1.1294057     0.062544892
       1301.0000       1.1306026     0.062828549
       1302.0000       1.1312334     0.063021126
       1303.0000       1.1314154     0.062696049
       1304.0000       1.1316149     0.061756840
       1305.0000       1.1320520     0.060514763
       1306.0000       1.1325808     0.059134101
       1307.0000       1.1331329     0.057501805
       1308.0000       1.1338464     0.055520649
       1309.0000       1.1349232     0.053242383
       1310.0000       1.1365135     0.050852229
       1311.0000       1.1386267     0.048616502
       1312.0000       1.1411199     0.046725827
       1313.0000       1.1438489     0.045287683
       1314.0000       1.1465902     0.044399280
       1315.0000       1.1490636     0.043953479
       1316.0000       1.1512017     0.043729034
       1317.0000       1.1530145     0.043650474
       1318.0000       1.1544125     0.043609525
       1319.0000       1.1554117     0.043382040
       1320.0000       1.1561778     0.042806338
       1321.0000       1.1569340     0.041850362
       1322.0000       1.1578687     0.040634290
       1323.0000       1.1590008     0.039369176
       1324.0000       1.1601590     0.038121554
       1325.0000       1.1612994     0.036709259
       1326.0000       1.1626752     0.035065922
       1327.0000       1.1644720     0.033474645
       1328.0000       1.1665104     0.032258213
       1329.0000       1.1684500     0.031453181
       1330.0000       1.1700624     0.030893012
       1331.0000       1.1712151     0.030345209
       1332.0000       1.1718919     0.029440421
       1333.0000       1.1724459     0.027784300
       1334.0000       1.1735097     0.025432837
       1335.0000       1.1753997     0.022914321
       1336.0000       1.1779595     0.020699372
       1337.0000       1.1808871     0.018963682
       1338.0000       1.1839556     0.017698531
       1339.0000       1.1870380     0.016843599
       1340.0000       1.1900690     0.016348902
       1341.0000       1.1930061     0.016193117
       1342.0000       1.1957960     0.016383558
       1343.0000       1.1983402     0.016940944
       1344.0000       1.2004596     0.017850573
       1345.0000       1.2019019     0.018950996
       1346.0000       1.2025101     0.019808923
       1347.0000       1.2025588     0.019859848
       1348.0000       1.2027533     0.018946314
       1349.0000       1.2036171     0.017511582
       1350.0000       1.2051532     0.016102111
       1351.0000       1.2071043     0.015004462
       1352.0000       1.2092202     0.014288852
       1353.0000       1.2113141     0.013935755
       1354.0000       1.2132280     0.013884582
       1355.0000       1.2148147     0.014004150
       1356.0000       1.2160109     0.014049013
       1357.0000       1.2169756     0.013754647
       1358.0000       1.2180326     0.013082441
       1359.0000       1.2193806     0.012243856
       1360.0000       1.2209936     0.011456340
       1361.0000       1.2227599     0.010815147
       1362.0000       1.2245874     0.010329881
       1363.0000       1.2264230    0.0099809842
       1364.0000       1.2282400    0.0097474767
       1365.0000       1.2300240    0.0096153323
       1366.0000       1.2317631    0.0095779768
       1367.0000       1.2334404    0.0096330435
       1368.0000       1.2350283    0.0097745487
       1369.0000       1.2364887    0.0099779248
       1370.0000       1.2377924     0.010182469
       1371.0000       1.2389610     0.010298255
       1372.0000       1.2400917     0.010266767
       1373.0000       1.2413016     0.010123314
       1374.0000       1.2426444    0.0099709243
       1375.0000       1.2441000    0.0099083238
       1376.0000       1.2456135     0.010001754
       1377.0000       1.2471165     0.010296691
       1378.0000       1.2485166     0.010828343
       1379.0000       1.2496712     0.011602839
       1380.0000       1.2503812     0.012526736
       1381.0000       1.2504908     0.013306293
       1382.0000       1.2501368     0.013503738
       1383.0000       1.2498237     0.012921432
       1384.0000       1.2500004     0.011837384
       1385.0000       1.2507239     0.010674015
       1386.0000       1.2518166    0.0096695331
       1387.0000       1.2530967    0.0088784513
       1388.0000       1.2544496    0.0082754271
       1389.0000       1.2558160    0.0078183947
       1390.0000       1.2571690    0.0074707001
       1391.0000       1.2584977    0.0072054366
       1392.0000       1.2597989    0.0070044755
       1393.0000       1.2610726    0.0068566728
       1394.0000       1.2623190    0.0067564718
       1395.0000       1.2635368    0.0067029927
       1396.0000       1.2647203    0.0066990970
       1397.0000       1.2658557    0.0067489033
       1398.0000       1.2669156    0.0068501822
       1399.0000       1.2678617    0.0069770740
       1400.0000       1.2686718    0.0070614357
       1401.0000       1.2693912    0.0070169076
       1402.0000       1.2701289    0.0068223704
       1403.0000       1.2709625    0.0065467369
       1404.0000       1.2718901    0.0062702738
       1405.0000       1.2728737    0.0060318346
       1406.0000       1.2738795    0.0058373724
       1407.0000       1.2748876    0.0056801455
       1408.0000       1.2758878    0.0055513898
       1409.0000       1.2768759    0.0054437223
       1410.0000       1.2778503    0.0053516389
       1411.0000       1.2788109    0.0052711976
       1412.0000       1.2797581    0.0051995996
       1413.0000       1.2806924    0.0051348460
       1414.0000       1.2816144    0.0050754918
       1415.0000       1.2825248    0.0050204766
       1416.0000       1.2834243    0.0049690094
       1417.0000       1.2843132    0.0049204910
       1418.0000       1.2851921    0.0048744600
       1419.0000       1.2860615    0.0048305560
       1420.0000       1.2869217    0.0047884934
       1421.0000       1.2877730    0.0047480432
       1422.0000       1.2886158    0.0047090196
       1423.0000       1.2894504    0.0046712699
       1424.0000       1.2902770    0.0046346670
       1425.0000       1.2910959    0.0045991047
       1426.0000       1.2919072    0.0045644925
       1427.0000       1.2927113    0.0045307537
       1428.0000       1.2935082    0.0044978217
       1429.0000       1.2942981    0.0044656391
       1430.0000       1.2950813    0.0044341556
       1431.0000       1.2958578    0.0044033270
       1432.0000       1.2966278    0.0043731142
       1433.0000       1.2973915    0.0043434825
       1434.0000       1.2981490    0.0043144007
       1435.0000       1.2989004    0.0042858408
       1436.0000       1.2996458    0.0042577776
       1437.0000       1.3003853    0.0042301880
       1438.0000       1.3011191    0.0042030512
       1439.0000       1.3018472    0.0041763481
       1440.0000       1.3025697    0.0041500611
       1441.0000       1.3032868    0.0041241740
       1442.0000       1.3039985    0.0040986719
       1443.0000       1.3047049    0.0040735409
       1444.0000       1.3054061    0.0040487681
       1445.0000       1.3061022    0.0040243416
       1446.0000       1.3067932    0.0040002500
       1447.0000       1.3074792    0.0039764829
       1448.0000       1.3081604    0.0039530304
       1449.0000       1.3088367    0.0039298832
       1450.0000       1.3095083    0.0039070325
       1451.0000       1.3101752    0.0038844701
       1452.0000       1.3108375    0.0038621881
       1453.0000       1.3114952    0.0038401791
       1454.0000       1.3121484    0.0038184360
       1455.0000       1.3127972    0.0037969522
       1456.0000       1.3134416    0.0037757212
       1457.0000       1.3140816    0.0037547370
       1458.0000       1.3147174    0.0037339936
       1459.0000       1.3153490    0.0037134857
       1460.0000       1.3159764    0.0036932078
       1461.0000       1.3165997    0.0036731548
       1462.0000       1.3172190    0.0036533219
       1463.0000       1.3178342    0.0036337043
       1464.0000       1.3184455    0.0036142975
       1465.0000       1.3190529    0.0035950972
       1466.0000       1.3196564    0.0035760992
       1467.0000       1.3202560    0.0035572995
       1468.0000       1.3208519    0.0035386941
       1469.0000       1.3214441    0.0035202793
       1470.0000       1.3220326    0.0035020514
       1471.0000       1.3226174    0.0034840071
       1472.0000       1.3231986    0.0034661428
       1473.0000       1.3237763    0.0034484553
       1474.0000       1.3243504    0.0034309414
       1475.0000       1.3249210    0.0034135980
       1476.0000       1.3254882    0.0033964221
       1477.0000       1.3260520    0.0033794109
       1478.0000       1.3266123    0.0033625614
       1479.0000       1.3271694    0.0033458711
       1480.0000       1.3277231    0.0033293371
       1481.0000       1.3282735    0.0033129570
       1482.0000       1.3288208    0.0032967283
       1483.0000       1.3293648    0.0032806483
       1484.0000       1.3299056    0.0032647149
       1485.0000       1.3304433    0.0032489257
       1486.0000       1.3309779    0.0032332784
       1487.0000       1.3315094    0.0032177709
       1488.0000       1.3320378    0.0032024009
       1489.0000       1.3325633    0.0031871664
       1490.0000       1.3330857    0.0031720654
       1491.0000       1.3336052    0.0031570958
       1492.0000       1.3341218    0.0031422557
       1493.0000       1.3346355    0.0031275433
       1494.0000       1.3351463    0.0031129567
       1495.0000       1.3356542    0.0030984940
       1496.0000       1.3361594    0.0030841535
       1497.0000       1.3366617    0.0030699335
       1498.0000       1.3371613    0.0030558322
       1499.0000       1.3376581    0.0030418481
       1500.0000       1.3381522    0.0030279795
       1501.0000       1.3386437    0.0030142248
       1502.0000       1.3391324    0.0030005825
       1503.0000       1.3396186    0.0029870511
       1504.0000       1.3401021    0.0029736290
       1505.0000       1.3405830    0.0029603149
       1506.0000       1.3410614    0.0029471072
       1507.0000       1.3415372    0.0029340047
       1508.0000       1.3420105    0.0029210059
       1509.0000       1.3424813    0.0029081095
       1510.0000       1.3429496    0.0028953142
       1511.0000       1.3434154    0.0028826187
       1512.0000       1.3438789    0.0028700218
       1513.0000       1.3443399    0.0028575221
       1514.0000       1.3447985    0.0028451185
       1515.0000       1.3452547    0.0028328098
       1516.0000       1.3457086    0.0028205948
       1517.0000       1.3461602    0.0028084724
       1518.0000       1.3466095    0.0027964415
       1519.0000       1.3470564    0.0027845009
       1520.0000       1.3475011    0.0027726495
       1521.0000       1.3479436    0.0027608864
       1522.0000       1.3483838    0.0027492103
       1523.0000       1.3488217    0.0027376204
       1524.0000       1.3492575    0.0027261156
       1525.0000       1.3496912    0.0027146949
       1526.0000       1.3501226    0.0027033573
       1527.0000       1.3505519    0.0026921019
       1528.0000       1.3509791    0.0026809278
       1529.0000       1.3514042    0.0026698339
       1530.0000       1.3518272    0.0026588194
       1531.0000       1.3522481    0.0026478834
       1532.0000       1.3526669    0.0026370250
       1533.0000       1.3530838    0.0026262434
       1534.0000       1.3534985    0.0026155376
       1535.0000       1.3539113    0.0026049069
       1536.0000       1.3543221    0.0025943504
       1537.0000       1.3547309    0.0025838674
       1538.0000       1.3551378    0.0025734569
       1539.0000       1.3555427    0.0025631183
       1540.0000       1.3559456    0.0025528508
       1541.0000       1.3563467    0.0025426535
       1542.0000       1.3567459    0.0025325258
       1543.0000       1.3571431    0.0025224668
       1544.0000       1.3575385    0.0025124760
       1545.0000       1.3579321    0.0025025525
       1546.0000       1.3583238    0.0024926957
       1547.0000       1.3587136    0.0024829048
       1548.0000       1.3591017    0.0024731792
       1549.0000       1.3594879    0.0024635182
       1550.0000       1.3598724    0.0024539211
       1551.0000       1.3602551    0.0024443874
       1552.0000       1.3606360    0.0024349162
       1553.0000       1.3610152    0.0024255071
       1554.0000       1.3613926    0.0024161593
       1555.0000       1.3617683    0.0024068724
       1556.0000       1.3621423    0.0023976455
       1557.0000       1.3625146    0.0023884782
       1558.0000       1.3628852    0.0023793699
       1559.0000       1.3632542    0.0023703200
       1560.0000       1.3636215    0.0023613279
       1561.0000       1.3639871    0.0023523930
       1562.0000       1.3643511    0.0023435148
       1563.0000       1.3647135    0.0023346927
       1564.0000       1.3650742    0.0023259262
       1565.0000       1.3654334    0.0023172148
       1566.0000       1.3657910    0.0023085579
       1567.0000       1.3661469    0.0022999550
       1568.0000       1.3665014    0.0022914056
       1569.0000       1.3668542    0.0022829092
       1570.0000       1.3672055    0.0022744652
       1571.0000       1.3675553    0.0022660733
       1572.0000       1.3679036    0.0022577329
       1573.0000       1.3682503    0.0022494434
       1574.0000       1.3685956    0.0022412046
       1575.0000       1.3689393    0.0022330158
       1576.0000       1.3692816    0.0022248766
       1577.0000       1.3696223    0.0022167866
       1578.0000       1.3699617    0.0022087453
       1579.0000       1.3702995    0.0022007523
       1580.0000       1.3706360    0.0021928071
       1581.0000       1.3709710    0.0021849093
       1582.0000       1.3713045    0.0021770585
       1583.0000       1.3716367    0.0021692543
       1584.0000       1.3719674    0.0021614961
       1585.0000       1.3722968    0.0021537837
       1586.0000       1.3726248    0.0021461166
       1587.0000       1.3729514    0.0021384944
       1588.0000       1.3732766    0.0021309168
       1589.0000       1.3736005    0.0021233832
       1590.0000       1.3739230    0.0021158935
       1591.0000       1.3742442    0.0021084470
       1592.0000       1.3745640    0.0021010436
       1593.0000       1.3748825    0.0020936827
       1594.0000       1.3751997    0.0020863641
       1595.0000       1.3755156    0.0020790874
       1596.0000       1.3758303    0.0020718522
       1597.0000       1.3761436    0.0020646581
       1598.0000       1.3764556    0.0020575049
       1599.0000       1.3767664    0.0020503921
       1600.0000       1.3770759    0.0020433195
       1601.0000       1.3773841    0.0020362866
       1602.0000       1.3776911    0.0020292932
       1603.0000       1.3779969    0.0020223389
       1604.0000       1.3783014    0.0020154234
       1605.0000       1.3786047    0.0020085464
       1606.0000       1.3789068    0.0020017075
       1607.0000       1.3792077    0.0019949065
       1608.0000       1.3795073    0.0019881430
       1609.0000       1.3798058    0.0019814167
       1610.0000       1.3801031    0.0019747273
       1611.0000       1.3803992    0.0019680745
       1612.0000       1.3806942    0.0019614580
       1613.0000       1.3809880    0.0019548776
       1614.0000       1.3812806    0.0019483328
       1615.0000       1.3815721    0.0019418236
       1616.0000       1.3818624    0.0019353494
       1617.0000       1.3821516    0.0019289102
       1618.0000       1.3824396    0.0019225055
       1619.0000       1.3827266    0.0019161351
       1620.0000       1.3830124    0.0019097988
       1621.0000       1.3832971    0.0019034963
       1622.0000       1.3835807    0.0018972273
       1623.0000       1.3838633    0.0018909915
       1624.0000       1.3841447    0.0018847887
       1625.0000       1.3844250    0.0018786186
       1626.0000       1.3847043    0.0018724810
       1627.0000       1.3849825    0.0018663757
       1628.0000       1.3852597    0.0018603022
       1629.0000       1.3855358    0.0018542606
       1630.0000       1.3858108    0.0018482504
       1631.0000       1.3860848    0.0018422714
       1632.0000       1.3863577    0.0018363234
       1633.0000       1.3866297    0.0018304062
       1634.0000       1.3869006    0.0018245195
       1635.0000       1.3871704    0.0018186631
       1636.0000       1.3874393    0.0018128368
       1637.0000       1.3877072    0.0018070403
       1638.0000       1.3879740    0.0018012734
       1639.0000       1.3882399    0.0017955359
       1640.0000       1.3885047    0.0017898276
       1641.0000       1.3887686    0.0017841482
       1642.0000       1.3890315    0.0017784976
       1643.0000       1.3892935    0.0017728755
       1644.0000       1.3895544    0.0017672817
       1645.0000       1.3898144    0.0017617160
       1646.0000       1.3900735    0.0017561782
       1647.0000       1.3903316    0.0017506681
       1648.0000       1.3905887    0.0017451855
       1649.0000       1.3908449    0.0017397302
       1650.0000       1.3911002    0.0017343020
       1651.0000       1.3913545    0.0017289006
       1652.0000       1.3916080    0.0017235260
       1653.0000       1.3918605    0.0017181778
       1654.0000       1.3921120    0.0017128560
       1655.0000       1.3923627    0.0017075603
       1656.0000       1.3926125    0.0017022905
       1657.0000       1.3928614    0.0016970465
       1658.0000       1.3931093    0.0016918281
       1659.0000       1.3933564    0.0016866350
       1660.0000       1.3936026    0.0016814672
       1661.0000       1.3938479    0.0016763243
       1662.0000       1.3940924    0.0016712064
       1663.0000       1.3943360    0.0016661131
       1664.0000       1.3945787    0.0016610443
       1665.0000       1.3948206    0.0016559998
       1666.0000       1.3950616    0.0016509795
       1667.0000       1.3953017    0.0016459832
       1668.0000       1.3955410    0.0016410107
       1669.0000       1.3957795    0.0016360619
       1670.0000       1.3960171    0.0016311366
       1671.0000       1.3962539    0.0016262346
       1672.0000       1.3964899    0.0016213558
       1673.0000       1.3967250    0.0016165000
       1674.0000       1.3969593    0.0016116671
       1675.0000       1.3971928    0.0016068568
       1676.0000       1.3974255    0.0016020692
       1677.0000       1.3976574    0.0015973039
       1678.0000       1.3978885    0.0015925608
       1679.0000       1.3981188    0.0015878399
       1680.0000       1.3983483    0.0015831408
       1681.0000       1.3985770    0.0015784636
       1682.0000       1.3988049    0.0015738081
       1683.0000       1.3990321    0.0015691740
       1684.0000       1.3992584    0.0015645613
       1685.0000       1.3994840    0.0015599698
       1686.0000       1.3997088    0.0015553994
       1687.0000       1.3999329    0.0015508499
       1688.0000       1.4001562    0.0015463213
       1689.0000       1.4003787    0.0015418132
       1690.0000       1.4006005    0.0015373258
       1691.0000       1.4008216    0.0015328587
       1692.0000       1.4010419    0.0015284118
       1693.0000       1.4012614    0.0015239851
       1694.0000       1.4014802    0.0015195784
       1695.0000       1.4016983    0.0015151915
       1696.0000       1.4019157    0.0015108244
       1697.0000       1.4021323    0.0015064769
       1698.0000       1.4023482    0.0015021488
       1699.0000       1.4025634    0.0014978401
       1700.0000       1.4027779    0.0014935507
       1701.0000       1.4029916    0.0014892803
       1702.0000       1.4032047    0.0014850290
       1703.0000       1.4034170    0.0014807964
       1704.0000       1.4036287    0.0014765827
       1705.0000       1.4038396    0.0014723875
       1706.0000       1.4040499    0.0014682109
       1707.0000       1.4042594    0.0014640526
       1708.0000       1.4044683    0.0014599126
       1709.0000       1.4046765    0.0014557908
       1710.0000       1.4048840    0.0014516870
       1711.0000       1.4050908    0.0014476011
       1712.0000       1.4052970    0.0014435331
       1713.0000       1.4055025    0.0014394827
       1714.0000       1.4057073    0.0014354500
       1715.0000       1.4059115    0.0014314347
       1716.0000       1.4061150    0.0014274368
       1717.0000       1.4063179    0.0014234562
       1718.0000       1.4065200    0.0014194927
       1719.0000       1.4067216    0.0014155463
       1720.0000       1.4069225    0.0014116168
       1721.0000       1.4071227    0.0014077042
       1722.0000       1.4073223    0.0014038083
       1723.0000       1.4075213    0.0013999291
       1724.0000       1.4077197    0.0013960664
       1725.0000       1.4079174    0.0013922201
       1726.0000       1.4081144    0.0013883902
       1727.0000       1.4083109    0.0013845765
       1728.0000       1.4085067    0.0013807790
       1729.0000       1.4087019    0.0013769975
       1730.0000       1.4088965    0.0013732319
       1731.0000       1.4090905    0.0013694822
       1732.0000       1.4092839    0.0013657482
       1733.0000       1.4094766    0.0013620300
       1734.0000       1.4096688    0.0013583272
       1735.0000       1.4098604    0.0013546400
       1736.0000       1.4100513    0.0013509681
       1737.0000       1.4102417    0.0013473115
       1738.0000       1.4104314    0.0013436701
       1739.0000       1.4106206    0.0013400438
       1740.0000       1.4108092    0.0013364326
       1741.0000       1.4109972    0.0013328363
       1742.0000       1.4111846    0.0013292548
       1743.0000       1.4113715    0.0013256880
       1744.0000       1.4115577    0.0013221360
       1745.0000       1.4117434    0.0013185985
       1746.0000       1.4119285    0.0013150755
       1747.0000       1.4121131    0.0013115670
       1748.0000       1.4122971    0.0013080727
       1749.0000       1.4124805    0.0013045928
       1750.0000       1.4126633    0.0013011269
       1751.0000       1.4128456    0.0012976752
       1752.0000       1.4130274    0.0012942375
       1753.0000       1.4132086    0.0012908137
       1754.0000       1.4133892    0.0012874037
       1755.0000       1.4135693    0.0012840075
       1756.0000       1.4137488    0.0012806250
       1757.0000       1.4139278    0.0012772561
       1758.0000       1.4141063    0.0012739007
       1759.0000       1.4142842    0.0012705587
       1760.0000       1.4144616    0.0012672302
       1761.0000       1.4146384    0.0012639149
       1762.0000       1.4148148    0.0012606128
       1763.0000       1.4149906    0.0012573239
       1764.0000       1.4151658    0.0012540481
       1765.0000       1.4153406    0.0012507853
       1766.0000       1.4155148    0.0012475354
       1767.0000       1.4156885    0.0012442984
       1768.0000       1.4158617    0.0012410741
       1769.0000       1.4160343    0.0012378626
       1770.0000       1.4162065    0.0012346636
       1771.0000       1.4163781    0.0012314773
       1772.0000       1.4165493    0.0012283035
       1773.0000       1.4167199    0.0012251421
       1774.0000       1.4168900    0.0012219930
       1775.0000       1.4170597    0.0012188563
       1776.0000       1.4172288    0.0012157318
       1777.0000       1.4173974    0.0012126194
       1778.0000       1.4175656    0.0012095192
       1779.0000       1.4177332    0.0012064309
       1780.0000       1.4179004    0.0012033547
       1781.0000       1.4180670    0.0012002903
       1782.0000       1.4182332    0.0011972377
       1783.0000       1.4183989    0.0011941969
       1784.0000       1.4185641    0.0011911679
       1785.0000       1.4187289    0.0011881504
       1786.0000       1.4188931    0.0011851446
       1787.0000       1.4190569    0.0011821502
       1788.0000       1.4192202    0.0011791673
       1789.0000       1.4193831    0.0011761958
       1790.0000       1.4195454    0.0011732356
       1791.0000       1.4197074    0.0011702867
       1792.0000       1.4198688    0.0011673490
       1793.0000       1.4200298    0.0011644224
       1794.0000       1.4201903    0.0011615069
       1795.0000       1.4203503    0.0011586025
       1796.0000       1.4205099    0.0011557090
       1797.0000       1.4206691    0.0011528265
       1798.0000       1.4208278    0.0011499548
       1799.0000       1.4209860    0.0011470939
       1800.0000       1.4211438    0.0011442437
       1801.0000       1.4213011    0.0011414042
       1802.0000       1.4214580    0.0011385753
       1803.0000       1.4216145    0.0011357571
       1804.0000       1.4217705    0.0011329493
       1805.0000       1.4219261    0.0011301520
       1806.0000       1.4220812    0.0011273651
       1807.0000       1.4222359    0.0011245885
       1808.0000       1.4223902    0.0011218223
       1809.0000       1.4225440    0.0011190663
       1810.0000       1.4226974    0.0011163204
       1811.0000       1.4228504    0.0011135848
       1812.0000       1.4230029    0.0011108592
       1813.0000       1.4231550    0.0011081436
       1814.0000       1.4233067    0.0011054380
       1815.0000       1.4234580    0.0011027424
       1816.0000       1.4236088    0.0011000566
       1817.0000       1.4237593    0.0010973807
       1818.0000       1.4239093    0.0010947145
       1819.0000       1.4240589    0.0010920581
       1820.0000       1.4242081    0.0010894113
       1821.0000       1.4243568    0.0010867742
       1822.0000       1.4245052    0.0010841467
       1823.0000       1.4246532    0.0010815287
       1824.0000       1.4248007    0.0010789201
       1825.0000       1.4249479    0.0010763211
       1826.0000       1.4250946    0.0010737314
       1827.0000       1.4252410    0.0010711510
       1828.0000       1.4253869    0.0010685799
       1829.0000       1.4255324    0.0010660181
       1830.0000       1.4256776    0.0010634655
       1831.0000       1.4258223    0.0010609221
       1832.0000       1.4259667    0.0010583877
       1833.0000       1.4261107    0.0010558624
       1834.0000       1.4262542    0.0010533461
       1835.0000       1.4263974    0.0010508388
       1836.0000       1.4265402    0.0010483405
       1837.0000       1.4266826    0.0010458510
       1838.0000       1.4268247    0.0010433703
       1839.0000       1.4269663    0.0010408985
       1840.0000       1.4271076    0.0010384354
       1841.0000       1.4272485    0.0010359810
       1842.0000       1.4273890    0.0010335353
       1843.0000       1.4275291    0.0010310982
       1844.0000       1.4276689    0.0010286697
       1845.0000       1.4278082    0.0010262497
       1846.0000       1.4279473    0.0010238383
       1847.0000       1.4280859    0.0010214352
       1848.0000       1.4282242    0.0010190406
       1849.0000       1.4283621    0.0010166544
       1850.0000       1.4284996    0.0010142765
       1851.0000       1.4286368    0.0010119069
       1852.0000       1.4287736    0.0010095456
       1853.0000       1.4289100    0.0010071925
       1854.0000       1.4290461    0.0010048475
       1855.0000       1.4291819    0.0010025107
       1856.0000       1.4293172    0.0010001819
       1857.0000       1.4294522   0.00099786128
       1858.0000       1.4295869   0.00099554862
       1859.0000       1.4297212   0.00099324394
       1860.0000       1.4298552   0.00099094721
       1861.0000       1.4299888   0.00098865837
       1862.0000       1.4301220   0.00098637740
       1863.0000       1.4302549   0.00098410426
       1864.0000       1.4303875   0.00098183891
       1865.0000       1.4305197   0.00097958131
       1866.0000       1.4306516   0.00097733143
       1867.0000       1.4307831   0.00097508923
       1868.0000       1.4309143   0.00097285467
       1869.0000       1.4310451   0.00097062772
       1870.0000       1.4311756   0.00096840834
       1871.0000       1.4313058   0.00096619649
       1872.0000       1.4314356   0.00096399215
       1873.0000       1.4315651   0.00096179527
       1874.0000       1.4316943   0.00095960582
       1875.0000       1.4318231   0.00095742377
       1876.0000       1.4319516   0.00095524908
       1877.0000       1.4320798   0.00095308171
       1878.0000       1.4322077   0.00095092164
       1879.0000       1.4323352   0.00094876882
       1880.0000       1.4324624   0.00094662323
       1881.0000       1.4325892   0.00094448483
       1882.0000       1.4327158   0.00094235359
       1883.0000       1.4328420   0.00094022947
       1884.0000       1.4329679   0.00093811245
       1885.0000       1.4330935   0.00093600248
       1886.0000       1.4332187   0.00093389954
       1887.0000       1.4333437   0.00093180359
       1888.0000       1.4334683   0.00092971461
       1889.0000       1.4335926   0.00092763255
       1890.0000       1.4337166   0.00092555740
       1891.0000       1.4338403   0.00092348911
       1892.0000       1.4339637   0.00092142765
       1893.0000       1.4340867   0.00091937300
       1894.0000       1.4342095   0.00091732513
       1895.0000       1.4343319   0.00091528399
       1896.0000       1.4344541   0.00091324957
       1897.0000       1.4345759   0.00091122183
       1898.0000       1.4346974   0.00090920074
       1899.0000       1.4348186   0.00090718627
       1900.0000       1.4349396   0.00090517839
       1901.0000       1.4350602   0.00090317708
       1902.0000       1.4351805   0.00090118229
       1903.0000       1.4353005   0.00089919401
       1904.0000       1.4354202   0.00089721220
       1905.0000       1.4355397   0.00089523683
       1906.0000       1.4356588   0.00089326788
       1907.0000       1.4357776   0.00089130532
       1908.0000       1.4358962   0.00088934912
       1909.0000       1.4360144   0.00088739924
       1910.0000       1.4361324   0.00088545567
       1911.0000       1.4362500   0.00088351837
       1912.0000       1.4363674   0.00088158732
       1913.0000       1.4364845   0.00087966248
       1914.0000       1.4366013   0.00087774383
       1915.0000       1.4367178   0.00087583135
       1916.0000       1.4368340   0.00087392500
       1917.0000       1.4369500   0.00087202477
       1918.0000       1.4370656   0.00087013061
       1919.0000       1.4371810   0.00086824251
       1920.0000       1.4372961   0.00086636044
       1921.0000       1.4374109   0.00086448437
       1922.0000       1.4375254   0.00086261427
       1923.0000       1.4376397   0.00086075013
       1924.0000       1.4377537   0.00085889190
       1925.0000       1.4378674   0.00085703958
       1926.0000       1.4379808   0.00085519313
       1927.0000       1.4380940   0.00085335252
       1928.0000       1.4382068   0.00085151774
       1929.0000       1.4383194   0.00084968875
       1930.0000       1.4384318   0.00084786553
       1931.0000       1.4385438   0.00084604806
       1932.0000       1.4386556   0.00084423631
       1933.0000       1.4387672   0.00084243026
       1934.0000       1.4388784   0.00084062987
       1935.0000       1.4389894   0.00083883514
       1936.0000       1.4391001   0.00083704602
       1937.0000       1.4392106   0.00083526251
       1938.0000       1.4393208   0.00083348457
       1939.0000       1.4394307   0.00083171218
       1940.0000       1.4395404   0.00082994532
       1941.0000       1.4396498   0.00082818396
       1942.0000       1.4397590   0.00082642809
       1943.0000       1.4398679   0.00082467766
       1944.0000       1.4399765   0.00082293268
       1945.0000       1.4400849   0.00082119310
       1946.0000       1.4401930   0.00081945891
       1947.0000       1.4403009   0.00081773008
       1948.0000       1.4404085   0.00081600660
       1949.0000       1.4405158   0.00081428844
       1950.0000       1.4406229   0.00081257557
       1951.0000       1.4407298   0.00081086797
       1952.0000       1.4408364   0.00080916563
       1953.0000       1.4409427   0.00080746852
       1954.0000       1.4410488   0.00080577662
       1955.0000       1.4411547   0.00080408990
       1956.0000       1.4412603   0.00080240835
       1957.0000       1.4413656   0.00080073194
       1958.0000       1.4414707   0.00079906066
       1959.0000       1.4415756   0.00079739447
       1960.0000       1.4416802   0.00079573336
       1961.0000       1.4417846   0.00079407731
       1962.0000       1.4418887   0.00079242630
       1963.0000       1.4419926   0.00079078030
       1964.0000       1.4420962   0.00078913930
       1965.0000       1.4421996   0.00078750327
       1966.0000       1.4423028   0.00078587219
       1967.0000       1.4424057   0.00078424605
       1968.0000       1.4425084   0.00078262482
       1969.0000       1.4426109   0.00078100848
       1970.0000       1.4427131   0.00077939702
       1971.0000       1.4428151   0.00077779041
       1972.0000       1.4429168   0.00077618863
       1973.0000       1.4430183   0.00077459166
       1974.0000       1.4431196   0.00077299948
       1975.0000       1.4432207   0.00077141208
       1976.0000       1.4433215   0.00076982944
       1977.0000       1.4434221   0.00076825152
       1978.0000       1.4435224   0.00076667832
       1979.0000       1.4436226   0.00076510982
       1980.0000       1.4437225   0.00076354600
       1981.0000       1.4438221   0.00076198683
       1982.0000       1.4439216   0.00076043230
       1983.0000       1.4440208   0.00075888239
       1984.0000       1.4441198   0.00075733708
       1985.0000       1.4442185   0.00075579636
       1986.0000       1.4443171   0.00075426020
       1987.0000       1.4444154   0.00075272858
       1988.0000       1.4445135   0.00075120150
       1989.0000       1.4446114   0.00074967892
       1990.0000       1.4447090   0.00074816083
       1991.0000       1.4448064   0.00074664722
       1992.0000       1.4449036   0.00074513806
       1993.0000       1.4450006   0.00074363334
       1994.0000       1.4450974   0.00074213304
       1995.0000       1.4451940   0.00074063714
       1996.0000       1.4452903   0.00073914562
       1997.0000       1.4453864   0.00073765848
       1998.0000       1.4454823   0.00073617568
       1999.0000       1.4455780   0.00073469721
       2000.0000       1.4456735   0.00073322306
       2004.0081       1.4460541   0.00072735748
       2008.0321       1.4464327   0.00072153699
       2012.0725       1.4468096   0.00071576062
       2016.1290       1.4471845   0.00071002853
       2020.2021       1.4475577   0.00070433977
       2024.2915       1.4479290   0.00069869450
       2028.3976       1.4482985   0.00069309193
       2032.5203       1.4486661   0.00068753197
       2036.6599       1.4490321   0.00068201396
       2040.8163       1.4493962   0.00067653781
       2044.9898       1.4497585   0.00067110289
       2049.1803       1.4501191   0.00066570913
       2053.3881       1.4504780   0.00066035590
       2057.6131       1.4508351   0.00065504311
       2061.8557       1.4511905   0.00064977007
       2066.1156       1.4515442   0.00064453691
       2070.3934       1.4518962   0.00063934272
       2074.6887       1.4522465   0.00063418776
       2079.0021       1.4525952   0.00062907112
       2083.3333       1.4529421   0.00062399297
       2087.6827       1.4532874   0.00061895263
       2092.0501       1.4536311   0.00061395016
       2096.4361       1.4539731   0.00060898468
       2100.8402       1.4543135   0.00060405657
       2105.2632       1.4546523   0.00059916477
       2109.7047       1.4549895   0.00059430953
       2114.1649       1.4553250   0.00058949047
       2118.6442       1.4556590   0.00058470698
       2123.1422       1.4559914   0.00057995933
       2127.6597       1.4563223   0.00057524649
       2132.1961       1.4566516   0.00057056895
       2136.7522       1.4569793   0.00056592571
       2141.3276       1.4573055   0.00056131703
       2145.9228       1.4576302   0.00055674225
       2150.5376       1.4579533   0.00055220142
       2155.1725       1.4582750   0.00054769390
       2159.8272       1.4585951   0.00054321983
       2164.5022       1.4589138   0.00053877860
       2169.1973       1.4592309   0.00053437024
       2173.9131       1.4595466   0.00052999407
       2178.6492       1.4598608   0.00052565031
       2183.4061       1.4601735   0.00052133837
       2188.1837       1.4604848   0.00051705822
       2192.9825       1.4607947   0.00051280928
       2197.8021       1.4611031   0.00050859177
       2202.6432       1.4614101   0.00050440497
       2207.5054       1.4617157   0.00050024908
       2212.3894       1.4620199   0.00049612341
       2217.2948       1.4623226   0.00049202816
       2222.2222       1.4626240   0.00048796272
       2227.1716       1.4629240   0.00048392698
       2232.1428       1.4632226   0.00047992099
       2237.1363       1.4635199   0.00047594423
       2242.1524       1.4638157   0.00047199636
       2247.1911       1.4641103   0.00046807729
       2252.2522       1.4644034   0.00046418705
       2257.3364       1.4646953   0.00046032501
       2262.4434       1.4649858   0.00045649131
       2267.5738       1.4652750   0.00045268538
       2272.7272       1.4655628   0.00044890743
       2277.9044       1.4658494   0.00044515679
       2283.1050       1.4661346   0.00044143364
       2288.3296       1.4664186   0.00043773747
       2293.5779       1.4667012   0.00043406841
       2298.8506       1.4669826   0.00043042587
       2304.1474       1.4672627   0.00042680997
       2309.4689       1.4675415   0.00042322024
       2314.8147       1.4678191   0.00041965684
       2320.1856       1.4680954   0.00041611918
       2325.5813       1.4683705   0.00041260736
       2331.0024       1.4686443   0.00040912093
       2336.4485       1.4689169   0.00040566005
       2341.9204       1.4691883   0.00040222416
       2347.4177       1.4694584   0.00039881342
       2352.9412       1.4697273   0.00039542728
       2358.4907       1.4699950   0.00039206578
       2364.0662       1.4702615   0.00038872886
       2369.6681       1.4705268   0.00038541620
       2375.2969       1.4707910   0.00038212745
       2380.9525       1.4710539   0.00037886261
       2386.6348       1.4713157   0.00037562166
       2392.3446       1.4715762   0.00037240409
       2398.0815       1.4718357   0.00036921007
       2403.8462       1.4720939   0.00036603914
       2409.6385       1.4723510   0.00036289137
       2415.4590       1.4726070   0.00035976636
       2421.3074       1.4728618   0.00035666422
       2427.1845       1.4731154   0.00035358448
       2433.0899       1.4733680   0.00035052729
       2439.0244       1.4736194   0.00034749219
       2444.9877       1.4738697   0.00034447927
       2450.9804       1.4741189   0.00034148820
       2457.0024       1.4743669   0.00033851897
       2463.0542       1.4746139   0.00033557128
       2469.1357       1.4748597   0.00033264515
       2475.2475       1.4751045   0.00032974023
       2481.3894       1.4753482   0.00032685658
       2487.5622       1.4755908   0.00032399378
       2493.7654       1.4758323   0.00032115203
       2500.0000       1.4760727   0.00031833081
       2506.2657       1.4763121   0.00031553025
       2512.5628       1.4765504   0.00031275015
       2518.8917       1.4767877   0.00030999030
       2525.2525       1.4770239   0.00030725063
       2531.6455       1.4772591   0.00030453097
       2538.0710       1.4774932   0.00030183116
       2544.5292       1.4777263   0.00029915109
       2551.0204       1.4779583   0.00029649059
       2557.5449       1.4781893   0.00029384951
       2564.1025       1.4784193   0.00029122791
       2570.6942       1.4786483   0.00028862535
       2577.3195       1.4788763   0.00028604200
       2583.9794       1.4791032   0.00028347744
       2590.6735       1.4793292   0.00028093181
       2597.4027       1.4795541   0.00027840474
       2604.1666       1.4797781   0.00027589634
       2610.9661       1.4800010   0.00027340626
       2617.8009       1.4802230   0.00027093460
       2624.6720       1.4804440   0.00026848095
       2631.5788       1.4806640   0.00026604553
       2638.5225       1.4808831   0.00026362787
       2645.5027       1.4811012   0.00026122811
       2652.5199       1.4813183   0.00025884605
       2659.5745       1.4815344   0.00025648154
       2666.6667       1.4817497   0.00025413449
       2673.7968       1.4819639   0.00025180479
       2680.9651       1.4821772   0.00024949231
       2688.1720       1.4823896   0.00024719693
       2695.4178       1.4826010   0.00024491852
       2702.7027       1.4828115   0.00024265701
       2710.0271       1.4830210   0.00024041226
       2717.3913       1.4832297   0.00023818417
       2724.7956       1.4834374   0.00023597264
       2732.2404       1.4836442   0.00023377753
       2739.7260       1.4838500   0.00023159874
       2747.2528       1.4840550   0.00022943616
       2754.8208       1.4842591   0.00022728976
       2762.4310       1.4844622   0.00022515926
       2770.0830       1.4846645   0.00022304477
       2777.7779       1.4848659   0.00022094596
       2785.5152       1.4850663   0.00021886298
       2793.2961       1.4852659   0.00021679548
       2801.1203       1.4854646   0.00021474355
       2808.9888       1.4856624   0.00021270692
       2816.9013       1.4858594   0.00021068566
       2824.8588       1.4860554   0.00020867951
       2832.8610       1.4862506   0.00020668855
       2840.9091       1.4864450   0.00020471247
       2849.0029       1.4866384   0.00020275132
       2857.1429       1.4868311   0.00020080499
       2865.3295       1.4870228   0.00019887336
       2873.5632       1.4872137   0.00019695633
       2881.8444       1.4874038   0.00019505379
       2890.1734       1.4875930   0.00019316570
       2898.5507       1.4877814   0.00019129192
       2906.9767       1.4879689   0.00018943237
       2915.4518       1.4881556   0.00018758697
       2923.9765       1.4883415   0.00018575562
       2932.5512       1.4885265   0.00018393822
       2941.1764       1.4887107   0.00018213468
       2949.8526       1.4888941   0.00018034489
       2958.5798       1.4890767   0.00017856887
       2967.3592       1.4892585   0.00017680637
       2976.1904       1.4894394   0.00017505748
       2985.0747       1.4896195   0.00017332195
       2994.0118       1.4897989   0.00017159984
       3003.0031       1.4899774   0.00016989089
       3012.0480       1.4901551   0.00016819522
       3021.1481       1.4903321   0.00016651255
       3030.3029       1.4905082   0.00016484296
       3039.5137       1.4906836   0.00016318624
       3048.7803       1.4908581   0.00016154243
       3058.1040       1.4910319   0.00015991130
       3067.4847       1.4912049   0.00015829289
       3076.9231       1.4913771   0.00015668709
       3086.4197       1.4915486   0.00015509382
       3095.9752       1.4917192   0.00015351298
       3105.5900       1.4918891   0.00015194450
       3115.2648       1.4920583   0.00015038830
       3125.0000       1.4922267   0.00014884432
       3134.7962       1.4923943   0.00014731247
       3144.6540       1.4925611   0.00014579268
       3154.5741       1.4927272   0.00014428485
       3164.5569       1.4928926   0.00014278894
       3174.6031       1.4930572   0.00014130485
       3184.7135       1.4932210   0.00013983249
       3194.8881       1.4933841   0.00013837186
       3205.1283       1.4935465   0.00013692278
       3215.4339       1.4937081   0.00013548531
       3225.8066       1.4938690   0.00013405920
       3236.2458       1.4940291   0.00013264458
       3246.7533       1.4941885   0.00013124120
       3257.3288       1.4943472   0.00012984913
       3267.9739       1.4945052   0.00012846817
       3278.6883       1.4946624   0.00012709839
       3289.4737       1.4948189   0.00012573957
       3300.3298       1.4949747   0.00012439179
       3311.2583       1.4951298   0.00012305484
       3322.2591       1.4952842   0.00012172876
       3333.3333       1.4954378   0.00012041343
       3344.4816       1.4955908   0.00011910880
       3355.7047       1.4957430   0.00011781480
       3367.0033       1.4958946   0.00011653137
       3378.3783       1.4960454   0.00011525843
       3389.8305       1.4961955   0.00011399592
       3401.3605       1.4963450   0.00011274378
       3412.9692       1.4964937   0.00011150194
       3424.6574       1.4966418   0.00011027034
       3436.4260       1.4967891   0.00010904890
       3448.2757       1.4969358   0.00010783758
       3460.2075       1.4970818   0.00010663630
       3472.2221       1.4972271   0.00010544501
       3484.3204       1.4973717   0.00010426364
       3496.5033       1.4975157   0.00010309213
       3508.7718       1.4976589   0.00010193041
       3521.1266       1.4978015   0.00010077843
       3533.5687       1.4979435   9.9636137e-05
       3546.0994       1.4980847   9.8503424e-05
       3558.7189       1.4982253   9.7380299e-05
       3571.4286       1.4983652   9.6266667e-05
       3584.2294       1.4985045   9.5162472e-05
       3597.1223       1.4986431   9.4067655e-05
       3610.1083       1.4987810   9.2982157e-05
       3623.1884       1.4989183   9.1905919e-05
       3636.3636       1.4990549   9.0838888e-05
       3649.6350       1.4991909   8.9781001e-05
       3663.0036       1.4993262   8.8732205e-05
       3676.4705       1.4994608   8.7692441e-05
       3690.0368       1.4995949   8.6661652e-05
       3703.7036       1.4997282   8.5639783e-05
       3717.4720       1.4998610   8.4626777e-05
       3731.3432       1.4999931   8.3622579e-05
       3745.3182       1.5001245   8.2627140e-05
       3759.3984       1.5002553   8.1640392e-05
       3773.5848       1.5003855   8.0662292e-05
       3787.8786       1.5005151   7.9692788e-05
       3802.2812       1.5006440   7.8731813e-05
       3816.7937       1.5007723   7.7779325e-05
       3831.4174       1.5008999   7.6835267e-05
       3846.1536       1.5010270   7.5899585e-05
       3861.0036       1.5011534   7.4972228e-05
       3875.9687       1.5012791   7.4053142e-05
       3891.0503       1.5014043   7.3142275e-05
       3906.2501       1.5015289   7.2239555e-05
       3921.5687       1.5016528   7.1344976e-05
       3937.0079       1.5017761   7.0458465e-05
       3952.5692       1.5018988   6.9579967e-05
       3968.2540       1.5020209   6.8709432e-05
       3984.0638       1.5021424   6.7846811e-05
       4000.0000       1.5022632   6.6992059e-05
       4016.0642       1.5023835   6.6145123e-05
       4032.2580       1.5025032   6.5305950e-05
       4048.5829       1.5026222   6.4474495e-05
       4065.0406       1.5027407   6.3650704e-05
       4081.6326       1.5028585   6.2834534e-05
       4098.3606       1.5029758   6.2025934e-05
       4115.2262       1.5030925   6.1224862e-05
       4132.2313       1.5032085   6.0431258e-05
       4149.3774       1.5033240   5.9645090e-05
       4166.6665       1.5034389   5.8866294e-05
       4184.1002       1.5035532   5.8094837e-05
       4201.6805       1.5036669   5.7330662e-05
       4219.4091       1.5037800   5.6573730e-05
       4237.2879       1.5038925   5.5823992e-05
       4255.3189       1.5040045   5.5081402e-05
       4273.5040       1.5041159   5.4345914e-05
       4291.8452       1.5042266   5.3617482e-05
       4310.3445       1.5043368   5.2896060e-05
       4329.0044       1.5044465   5.2181590e-05
       4347.8262       1.5045555   5.1474057e-05
       4366.8123       1.5046640   5.0773402e-05
       4385.9650       1.5047719   5.0079577e-05
       4405.2864       1.5048793   4.9392544e-05
       4424.7788       1.5049860   4.8712254e-05
       4444.4444       1.5050922   4.8038668e-05
       4464.2857       1.5051979   4.7371734e-05
       4484.3049       1.5053029   4.6711418e-05
       4504.5044       1.5054074   4.6057672e-05
       4524.8868       1.5055114   4.5410454e-05
       4545.4544       1.5056147   4.4769725e-05
       4566.2099       1.5057176   4.4135436e-05
       4587.1558       1.5058198   4.3507550e-05
       4608.2948       1.5059215   4.2886023e-05
       4629.6294       1.5060227   4.2270815e-05
       4651.1626       1.5061233   4.1661883e-05
       4672.8970       1.5062233   4.1059184e-05
       4694.8354       1.5063228   4.0462681e-05
       4716.9809       1.5064217   3.9872330e-05
       4739.3362       1.5065201   3.9288092e-05
       4761.9044       1.5066180   3.8709930e-05
       4784.6886       1.5067152   3.8137795e-05
       4807.6919       1.5068120   3.7571652e-05
       4830.9175       1.5069082   3.7011458e-05
       4854.3685       1.5070039   3.6457179e-05
       4878.0489       1.5070990   3.5908759e-05
       4901.9609       1.5071936   3.5366185e-05
       4926.1084       1.5072876   3.4829404e-05
       4950.4951       1.5073811   3.4298375e-05
       4975.1244       1.5074741   3.3773067e-05
       5000.0000       1.5075665   3.3253433e-05
       5025.1256       1.5076584   3.2739442e-05
       5050.5050       1.5077498   3.2231046e-05
       5076.1421       1.5078406   3.1728215e-05
       5102.0407       1.5079309   3.1230907e-05
       5128.2050       1.5080207   3.0739087e-05
       5154.6390       1.5081099   3.0252715e-05
       5181.3470       1.5081986   2.9771756e-05
       5208.3331       1.5082868   2.9296172e-05
       5235.6019       1.5083745   2.8825922e-05
       5263.1576       1.5084616   2.8360977e-05
       5291.0050       1.5085482   2.7901289e-05
       5319.1486       1.5086343   2.7446839e-05
       5347.5932       1.5087199   2.6997573e-05
       5376.3437       1.5088050   2.6553460e-05
       5405.4050       1.5088895   2.6114467e-05
       5434.7822       1.5089735   2.5680555e-05
       5464.4804       1.5090571   2.5251692e-05
       5494.5050       1.5091400   2.4827839e-05
       5524.8613       1.5092225   2.4408962e-05
       5555.5550       1.5093045   2.3995025e-05
       5586.5923       1.5093860   2.3585982e-05
       5617.9776       1.5094669   2.3181820e-05
       5649.7176       1.5095473   2.2782492e-05
       5681.8182       1.5096273   2.2387962e-05
       5714.2857       1.5097067   2.1998202e-05
       5747.1264       1.5097856   2.1613167e-05
       5780.3468       1.5098640   2.1232837e-05
       5813.9534       1.5099419   2.0857165e-05
       5847.9531       1.5100193   2.0486122e-05
       5882.3528       1.5100962   2.0119675e-05
       5917.1596       1.5101726   1.9757782e-05
       5952.3807       1.5102485   1.9400431e-05
       5988.0237       1.5103239   1.9047560e-05
       6024.0961       1.5103988   1.8699152e-05
       6060.6057       1.5104732   1.8355176e-05
       6097.5606       1.5105470   1.8015584e-05
       6134.9689       1.5106205   1.7680364e-05
       6172.8390       1.5106934   1.7349470e-05
       6211.1796       1.5107658   1.7022866e-05
       6249.9994       1.5108377   1.6700532e-05
       6289.3076       1.5109091   1.6382422e-05
       6329.1133       1.5109801   1.6068510e-05
       6369.4261       1.5110505   1.5758772e-05
       6410.2557       1.5111204   1.5453158e-05
       6451.6121       1.5111899   1.5151653e-05
       6493.5067       1.5112589   1.4854208e-05
       6535.9478       1.5113274   1.4560806e-05
       6578.9475       1.5113954   1.4271416e-05
       6622.5166       1.5114629   1.3985992e-05
       6666.6667       1.5115299   1.3704516e-05
       6711.4094       1.5115965   1.3426955e-05
       6756.7567       1.5116625   1.3153269e-05
       6802.7210       1.5117281   1.2883439e-05
       6849.3149       1.5117932   1.2617421e-05
       6896.5515       1.5118578   1.2355201e-05
       6944.4442       1.5119220   1.2096724e-05
       6993.0067       1.5119856   1.1841989e-05
       7042.2531       1.5120488   1.1590939e-05
       7092.1981       1.5121115   1.1343562e-05
       7142.8567       1.5121738   1.1099815e-05
       7194.2441       1.5122355   1.0859686e-05
       7246.3762       1.5122968   1.0623117e-05
       7299.2694       1.5123576   1.0390096e-05
       7352.9405       1.5124179   1.0160593e-05
       7407.4066       1.5124778   9.9345719e-06
       7462.6857       1.5125372   9.7120140e-06
       7518.7961       1.5125961   9.4928818e-06
       7575.7566       1.5126545   9.2771308e-06
       7633.5867       1.5127125   9.0647696e-06
       7692.3066       1.5127700   8.8557289e-06
       7751.9368       1.5128270   8.6500054e-06
       7812.5002       1.5128836   8.4475523e-06
       7874.0159       1.5129396   8.2483547e-06
       7936.5080       1.5129953   8.0523785e-06
       8000.0000       1.5130504   7.8595962e-06
       8064.5161       1.5131051   7.6699738e-06
       8130.0812       1.5131594   7.4834842e-06
       8196.7211       1.5132131   7.3001091e-06
       8264.4625       1.5132664   7.1198085e-06
       8333.3330       1.5133193   6.9425500e-06
       8403.3609       1.5133716   6.7683266e-06
       8474.5758       1.5134235   6.5970926e-06
       8547.0080       1.5134750   6.4288107e-06
       8620.6890       1.5135260   6.2634882e-06
       8695.6515       1.5135765   6.1010566e-06
       8771.9290       1.5136266   5.9414912e-06
       8849.5566       1.5136762   5.7847989e-06
       8928.5704       1.5137254   5.6309239e-06
       9009.0079       1.5137740   5.4798602e-06
       9090.9079       1.5138223   5.3315347e-06
       9174.3106       1.5138701   5.1859895e-06
       9259.2579       1.5139174   5.0431350e-06
       9345.7929       1.5139643   4.9029576e-06
       9433.9607       1.5140107   4.7654603e-06
       9523.8078       1.5140566   4.6305943e-06
       9615.3828       1.5141021   4.4983247e-06
       9708.7381       1.5141472   4.3686332e-06
       9803.9218       1.5141918   4.2414945e-06
       9900.9902       1.5142360   4.1169026e-06
       10000.000       1.5142797   3.9947620e-06
       10101.010       1.5143229   3.8751328e-06
       10204.082       1.5143657   3.7579003e-06
       10309.278       1.5144080   3.6431130e-06
       10416.667       1.5144499   3.5307263e-06
       10526.316       1.5144914   3.4206848e-06
       10638.298       1.5145324   3.3129876e-06
       10752.688       1.5145729   3.2075939e-06
       10869.565       1.5146130   3.1044881e-06
       10989.011       1.5146527   3.0036468e-06
       11111.111       1.5146919   2.9050386e-06
       11235.955       1.5147307   2.8086218e-06
       11363.636       1.5147690   2.7143847e-06
       11494.253       1.5148068   2.6223080e-06
       11627.907       1.5148443   2.5323207e-06
       11764.706       1.5148812   2.4444718e-06
       11904.762       1.5149178   2.3587178e-06
       12048.193       1.5149539   2.2749540e-06
       12195.122       1.5149895   2.1932566e-06
       12345.679       1.5150247   2.1135499e-06
       12500.000       1.5150595   2.0358498e-06
       12658.228       1.5150938   1.9600550e-06
       12820.513       1.5151277   1.8861598e-06
       12987.013       1.5151611   1.8142126e-06
       13157.895       1.5151941   1.7440725e-06
       13333.333       1.5152267   1.6757679e-06
       13513.514       1.5152588   1.6093254e-06
       13698.630       1.5152905   1.5446259e-06
       13888.889       1.5153217   1.4818229e-06
       14084.507       1.5153525   1.4206989e-06
       14285.714       1.5153828   1.3612356e-06
       14492.754       1.5154128   1.3034897e-06
       14705.882       1.5154422   1.2473438e-06
       14925.373       1.5154713   1.1929308e-06
       15151.515       1.5154999   1.1401093e-06
       15384.615       1.5155281   1.0889069e-06
       15625.000       1.5155558   1.0392425e-06
       15873.016       1.5155831   9.9112327e-07
       16129.032       1.5156099   9.4455028e-07
       16393.443       1.5156364   8.9939340e-07
       16666.667       1.5156623   8.5574710e-07
       16949.153       1.5156879   8.1358157e-07
       17241.379       1.5157130   7.7285185e-07
       17543.860       1.5157377   7.3334305e-07
       17857.143       1.5157619   6.9542300e-07
       18181.818       1.5157858   6.5869201e-07
       18518.519       1.5158091   6.2336030e-07
       18867.925       1.5158321   5.8930278e-07
       19230.769       1.5158546   5.5655388e-07
       19607.843       1.5158767   5.2493557e-07
       20000.000       1.5158983   4.9444020e-07
       20408.163       1.5159195   4.6552716e-07
       20833.333       1.5159403   4.3749566e-07
       21276.596       1.5159607   4.1052631e-07
       21739.130       1.5159806   3.8484250e-07
       22222.222       1.5160001   3.6041101e-07
       22727.273       1.5160191   3.3684535e-07
       23255.814       1.5160377   3.1434034e-07
       23809.524       1.5160559   2.9276137e-07
       24390.244       1.5160737   2.7232866e-07
       25000.000       1.5160910   2.5288109e-07