#SUBSTANCE=Low-Fe Olivine
#DESCRIPTION=Refractive index of low-Fe olivine (Mg<sub>1.9</sub>Fe<sub>0.1</sub>SiO<sub>4</sub>) (E||y)
#REFERENCE=Zeidler, S., Posch, T., Mutschke, H., Richter, H. and Wehrhan, O., 2011. Near-infrared absorption properties of oxygen-rich stardust analogs-The influence of coloring metal ions. Astronomy & Astrophysics, 526, p.A68.
#DOI=10.1051/0004-6361/201015219
#FORMAT=WAVN N K
0	2.6982558	0
1.221   2.69827 1.001E-4
2.4417  2.6983  2.00175E-4
3.6624  2.69836 3.00351E-4
4.8831  2.69845 4.00525E-4
6.1038  2.69855 5.00701E-4
7.3245  2.69868 6.01076E-4
8.5452  2.69884 7.01551E-4
9.7659  2.69901 8.02126E-4
10.9866 2.69922 9.02901E-4
12.2073 2.69944 0.001
13.428  2.69969 0.0011
14.6487 2.69996 0.00121
15.8694 2.70026 0.00131
17.0901 2.70058 0.00141
18.3108 2.70093 0.00151
19.5315 2.7013  0.00161
20.7522 2.7017  0.00172
21.9729 2.70211 0.00182
23.1936 2.70256 0.00192
24.4143 2.70303 0.00203
25.635  2.70352 0.00213
26.8557 2.70404 0.00223
28.0764 2.70458 0.00234
29.2971 2.70515 0.00245
30.5178 2.70574 0.00255
31.7385 2.70636 0.00266
32.9592 2.707   0.00276
34.1799 2.70767 0.00287
35.4006 2.70837 0.00298
36.6213 2.70909 0.00309
37.842  2.70984 0.0032
39.0627 2.71061 0.00331
40.2834 2.71141 0.00342
41.5041 2.71224 0.00353
42.7248 2.71309 0.00364
43.9455 2.71397 0.00375
45.1662 2.71488 0.00387
46.3869 2.71582 0.00398
47.6076 2.71678 0.0041
48.8283 2.71777 0.00421
50.049  2.7188  0.00433
51.26969        2.71985 0.00445
52.49039        2.72092 0.00457
53.71109        2.72203 0.00469
54.93179        2.72317 0.00481
56.15249        2.72434 0.00493
57.37319        2.72554 0.00506
58.59389        2.72676 0.00518
59.81459        2.72802 0.00531
61.03529        2.72932 0.00543
62.25599        2.73064 0.00556
63.47669        2.732   0.00569
64.69739        2.73338 0.00582
65.91809        2.73481 0.00596
67.13879        2.73626 0.00609
68.35949        2.73775 0.00623
69.58019        2.73928 0.00637
70.80089        2.74084 0.00651
72.02159        2.74244 0.00665
73.24229        2.74407 0.00679
74.46299        2.74575 0.00694
75.68369        2.74746 0.00709
76.90439        2.74921 0.00724
78.12509        2.751   0.00739
79.34579        2.75283 0.00755
80.56649        2.7547  0.00771
81.78719        2.75662 0.00787
83.00789        2.75858 0.00804
84.22859        2.76059 0.0082
85.44929        2.76264 0.00838
86.66999        2.76474 0.00855
87.89069        2.76689 0.00873
89.11139        2.76909 0.00891
90.33209        2.77134 0.0091
91.55279        2.77365 0.0093
92.77349        2.77602 0.00949
93.99419        2.77844 0.0097
95.21489        2.78093 0.00991
96.43559        2.78348 0.01013
97.65629        2.7861  0.01035
98.87699        2.78879 0.01059
100.09769       2.79155 0.01083
101.31839       2.79439 0.01108
102.53909       2.79731 0.01135
103.75979       2.80032 0.01162
104.98049       2.80343 0.01191
106.20119       2.80664 0.01222
107.42189       2.80995 0.01255
108.64259       2.81338 0.0129
109.86329       2.81695 0.01327
111.08399       2.82065 0.01367
112.30469       2.8245  0.01411
113.52539       2.82852 0.01458
114.74609       2.83274 0.01511
115.96679       2.83717 0.01569
117.18749       2.84184 0.01634
118.40819       2.84678 0.01709
119.62889       2.85206 0.01795
120.84959       2.8577  0.01895
122.07029       2.86379 0.02013
123.29099       2.87042 0.02156
124.51169       2.8777  0.02333
125.73239       2.88578 0.02556
126.95309       2.89487 0.02844
128.17379       2.90525 0.03229
129.39449       2.91728 0.03763
130.61519       2.93146 0.04534
131.83589       2.94836 0.05703
133.05659       2.96838 0.0758
134.27729       2.99046 0.10777
135.49799       3.00671 0.16393
136.71869       2.98632 0.25233
137.93939       2.87994 0.32253
139.16009       2.75446 0.27911
140.38079       2.71351 0.18782
141.60149       2.72358 0.12323
142.82219       2.7454  0.08611
144.04289       2.76661 0.06477
145.26359       2.78495 0.0519
146.48429       2.80056 0.04373
147.70499       2.814   0.03831
148.92569       2.8258  0.03459
150.14639       2.83635 0.03197
151.36708       2.84594 0.0301
152.58778       2.85481 0.02874
153.80848       2.86312 0.02776
155.02918       2.87099 0.02705
156.24988       2.87851 0.02655
157.47058       2.88578 0.02621
158.69128       2.89283 0.02599
159.91198       2.89973 0.02588
161.13268       2.90651 0.02585
162.35338       2.9132  0.02589
163.57408       2.91983 0.02599
164.79478       2.92642 0.02614
166.01548       2.93299 0.02634
167.23618       2.93956 0.02657
168.45688       2.94614 0.02684
169.67758       2.95274 0.02714
170.89828       2.95937 0.02746
172.11898       2.96605 0.02782
173.33968       2.97279 0.0282
174.56038       2.97958 0.02861
175.78108       2.98645 0.02903
177.00178       2.99339 0.02949
178.22248       3.00042 0.02996
179.44318       3.00754 0.03046
180.66388       3.01476 0.03097
181.88458       3.02208 0.03151
183.10528       3.02951 0.03208
184.32598       3.03706 0.03266
185.54668       3.04473 0.03327
186.76738       3.05253 0.0339
187.98808       3.06047 0.03455
189.20878       3.06854 0.03523
190.42948       3.07676 0.03593
191.65018       3.08514 0.03666
192.87088       3.09367 0.03742
194.09158       3.10238 0.0382
195.31228       3.11125 0.03902
196.53298       3.12031 0.03986
197.75368       3.12955 0.04073
198.97438       3.13899 0.04164
200.19508       3.14863 0.04258
201.41578       3.15848 0.04356
202.63648       3.16855 0.04458
203.85718       3.17885 0.04563
205.07788       3.18939 0.04673
206.29858       3.20017 0.04787
207.51928       3.21121 0.04906
208.73998       3.22252 0.0503
209.96068       3.23411 0.05158
211.18138       3.246   0.05293
212.40208       3.25818 0.05433
213.62278       3.27069 0.05579
214.84348       3.28352 0.05731
216.06418       3.2967  0.05891
217.28488       3.31025 0.06058
218.50558       3.32417 0.06233
219.72628       3.33849 0.06416
220.94698       3.35323 0.06608
222.16768       3.3684  0.06809
223.38838       3.38403 0.07021
224.60908       3.40014 0.07244
225.82978       3.41676 0.07478
227.05048       3.43391 0.07725
228.27118       3.45162 0.07986
229.49188       3.46993 0.08262
230.71258       3.48886 0.08554
231.93328       3.50845 0.08863
233.15398       3.52874 0.0919
234.37468       3.54977 0.09538
235.59538       3.57159 0.09909
236.81608       3.59425 0.10303
238.03678       3.6178  0.10724
239.25748       3.6423  0.11175
240.47818       3.66782 0.11657
241.69888       3.69442 0.12175
242.91958       3.72218 0.12732
244.14028       3.75119 0.13332
245.36098       3.78154 0.1398
246.58168       3.81334 0.14682
247.80238       3.8467  0.15444
249.02308       3.88175 0.16274
250.24378       3.91863 0.1718
251.46447       3.95751 0.18172
252.68517       3.99856 0.19262
253.90587       4.04198 0.20464
255.12657       4.08801 0.21794
256.34727       4.1369  0.23273
257.56797       4.18894 0.24922
258.78867       4.24447 0.26772
260.00937       4.30388 0.28857
261.23007       4.36758 0.31219
262.45077       4.43608 0.33911
263.67147       4.50996 0.36999
264.89217       4.58987 0.40567
266.11287       4.67655 0.4472
267.33357       4.77084 0.49594
268.55427       4.87369 0.55367
269.77497       4.98613 0.62273
270.99567       5.1092  0.70625
272.21637       5.24384 0.80844
273.43707       5.39066 0.935
274.65777       5.54937 1.09376
275.87847       5.71779 1.29539
277.09917       5.8898  1.55403
278.31987       6.05174 1.88736
279.54057       6.17656 2.3141
280.76127       6.21669 2.84471
281.98197       6.10372 3.46081
283.20267       5.77238 4.08902
284.42337       5.21617 4.60562
285.64407       4.5213  4.90407
286.86477       3.81698 4.96486
288.08547       3.19605 4.84418
289.30617       2.6913  4.61624
290.52687       2.29726 4.33769
291.74757       1.9949  4.04235
292.96827       1.76441 3.74759
294.18897       1.58959 3.46114
295.40967       1.45834 3.18555
296.63037       1.36216 2.92091
297.85107       1.29538 2.66616
299.07177       1.25463 2.41996
300.29247       1.23839 2.18116
301.51317       1.2467  1.94944
302.73387       1.28069 1.72591
303.95457       1.34159 1.51391
305.17527       1.42904 1.31895
306.39597       1.5393  1.14722
307.61667       1.66536 1.00276
308.83737       1.7993  0.88575
310.05807       1.93486 0.79325
311.27877       2.06833 0.72111
312.49947       2.19804 0.66535
313.72017       2.32361 0.6227
314.94087       2.44536 0.59069
316.16157       2.56395 0.56749
317.38227       2.68019 0.55183
318.60297       2.79496 0.54284
319.82367       2.90915 0.53998
321.04437       3.02366 0.54298
322.26507       3.13941 0.55184
323.48577       3.25735 0.56678
324.70647       3.37849 0.58827
325.92717       3.50383 0.61708
327.14787       3.6345  0.65431
328.36857       3.77168 0.70154
329.58927       3.91661 0.76089
330.80997       4.07051 0.83528
332.03067       4.23455 0.92874
333.25137       4.40952 1.04678
334.47207       4.59535 1.19698
335.69277       4.79009 1.38974
336.91347       4.98792 1.63887
338.13417       5.17562 1.96171
339.35487       5.32671 2.37638
340.57557       5.39469 2.89259
341.79627       5.31335 3.49093
343.01697       5.02192 4.0985
344.23767       4.51912 4.59674
345.45837       3.89109 4.88917
346.67907       3.25869 4.96366
347.89977       2.70437 4.87565
349.12047       2.2551  4.69363
350.34117       1.90418 4.46848
351.56186       1.63363 4.23011
352.78256       1.42528 3.99378
354.00326       1.26426 3.76622
355.22396       1.13942 3.54975
356.44466       1.04265 3.34447
357.66536       0.96819 3.14947
358.88606       0.91197 2.96339
360.10676       0.87122 2.78473
361.32746       0.84421 2.612
362.54816       0.83004 2.44384
363.76886       0.82855 2.27899
364.98956       0.84034 2.11652
366.21026       0.86677 1.95592
367.43096       0.90993 1.7975
368.65166       0.97247 1.64282
369.87236       1.05697 1.49531
371.09306       1.16461 1.36039
372.31376       1.29385 1.24442
373.53446       1.44015 1.15257
374.75516       1.59772 1.0872
375.97586       1.76158 1.04828
377.19656       1.92852 1.03482
378.41726       2.09679 1.04626
379.63796       2.26542 1.08324
380.85866       2.43329 1.148
382.07936       2.59816 1.2445
383.30006       2.75528 1.37833
384.52076       2.89562 1.55595
385.74146       3.00351 1.78227
386.96216       3.05534 2.05532
388.18286       3.02306 2.35786
389.40356       2.88709 2.65155
390.62426       2.65468 2.88553
391.84496       2.36479 3.02135
393.06566       2.06844 3.05212
394.28636       1.80431 2.99718
395.50706       1.59066 2.88399
396.72776       1.43148 2.73565
397.94846       1.32498 2.56762
399.16916       1.26949 2.38957
400.38986       1.26649 2.20872
401.61056       1.32172 2.03444
402.83126       1.44322 1.88378
404.05196       1.6341  1.78599
405.27266       1.88178 1.78054
406.49336       2.14927 1.90976
407.71406       2.36121 2.2071
408.93476       2.38959 2.64788
410.15546       2.13791 3.06685
411.37616       1.71324 3.26647
412.59686       1.31421 3.2436
413.81756       1.02162 3.1085
415.03826       0.82422 2.94105
416.25896       0.6922  2.77479
417.47966       0.60253 2.61992
418.70036       0.54059 2.47786
419.92106       0.49749 2.34733
421.14176       0.46783 2.22638
422.36246       0.4483  2.11313
423.58316       0.43691 2.00591
424.80386       0.43252 1.90336
426.02456       0.43461 1.80433
427.24526       0.44313 1.70791
428.46596       0.45845 1.6134
429.68666       0.48135 1.52043
430.90736       0.51298 1.42903
432.12806       0.5549  1.33981
433.34876       0.60879 1.25427
434.56946       0.67615 1.1751
435.79016       0.7575  1.10609
437.01086       0.85175 1.05166
438.23156       0.95606 1.01577
439.45226       1.06645 1.00121
440.67296       1.17871 1.00964
441.89366       1.28863 1.04217
443.11436       1.39165 1.09987
444.33506       1.48198 1.18362
445.55576       1.55186 1.29313
446.77646       1.59147 1.42504
447.99716       1.59065 1.57063
449.21786       1.54286 1.7147
450.43856       1.45016 1.83839
451.65925       1.32483 1.92587
452.87995       1.1849  1.97049
454.10065       1.04703 1.97537
455.32135       0.922   1.94928
456.54205       0.81445 1.90196
457.76275       0.72485 1.84152
458.98345       0.65156 1.77369
460.20415       0.59225 1.70219
461.42485       0.54463 1.62921
462.64555       0.5067  1.556
463.86625       0.47684 1.48315
465.08695       0.45379 1.41087
466.30765       0.43664 1.33914
467.52835       0.42476 1.26779
468.74905       0.41775 1.19659
469.96975       0.41548 1.12525
471.19045       0.41802 1.0535
472.41115       0.42572 0.98111
473.63185       0.43917 0.90801
474.85255       0.45925 0.83433
476.07325       0.48708 0.76071
477.29395       0.52374 0.68841
478.51465       0.5699  0.61952
479.73535       0.62519 0.55654
480.95605       0.68799 0.50168
482.17675       0.75595 0.45606
483.39745       0.82681 0.4196
484.61815       0.89903 0.39146
485.83885       0.97183 0.37065
487.05955       1.04507 0.35632
488.28025       1.11903 0.34797
489.50095       1.19428 0.34551
490.72165       1.27161 0.34934
491.94235       1.35199 0.36052
493.16305       1.43644 0.38106
494.38375       1.52583 0.41446
495.60445       1.62014 0.46664
496.82515       1.7164  0.54725
498.04585       1.80326 0.67018
499.26655       1.85008 0.84704
500.48725       1.80221 1.05805
501.70795       1.63159 1.21702
502.92865       1.41205 1.23999
504.14935       1.24702 1.14618
505.37005       1.17332 1.00626
506.59075       1.17754 0.87297
507.81145       1.23227 0.77079
509.03215       1.31332 0.70476
510.25285       1.40537 0.67077
511.47355       1.50082 0.66311
512.69425       1.59646 0.67767
513.91495       1.69088 0.71256
515.13565       1.78291 0.76779
516.35635       1.87063 0.84486
517.57705       1.95046 0.94624
518.79775       2.01615 1.07451
520.01845       2.05804 1.2306
521.23915       2.06313 1.41088
522.45985       2.01794 1.60367
523.68055       1.91489 1.78806
524.90125       1.75943 1.93912
526.12195       1.57088 2.03843
527.34265       1.37408 2.08171
528.56335       1.18913 2.07731
529.78405       1.02682 2.03892
531.00475       0.89008 1.97952
532.22545       0.77729 1.90887
533.44615       0.68507 1.83337
534.66685       0.60976 1.75684
535.88755       0.54807 1.68146
537.10825       0.4973  1.60832
538.32895       0.45528 1.53789
539.54965       0.42031 1.4703
540.77035       0.39108 1.40548
541.99105       0.36656 1.34324
543.21175       0.34594 1.28336
544.43245       0.32862 1.22558
545.65315       0.31411 1.16966
546.87385       0.30203 1.11534
548.09455       0.29209 1.0624
549.31525       0.2841  1.01059
550.53595       0.27789 0.95971
551.75664       0.27337 0.90955
552.97734       0.2705  0.8599
554.19804       0.26929 0.81059
555.41874       0.26982 0.76143
556.63944       0.27223 0.71227
557.86014       0.27673 0.66297
559.08084       0.28363 0.61347
560.30154       0.29336 0.56378
561.52224       0.30643 0.5141
562.74294       0.3234  0.4649
563.96364       0.34473 0.41698
565.18434       0.37057 0.37151
566.40504       0.40045 0.32976
567.62574       0.43331 0.29273
568.84644       0.46777 0.26082
570.06714       0.50254 0.23381
571.28784       0.53669 0.21112
572.50854       0.56966 0.19203
573.72924       0.60117 0.17588
574.94994       0.63113 0.16211
576.17064       0.65955 0.15026
577.39134       0.6865  0.13997
578.61204       0.71208 0.13096
579.83274       0.73637 0.12301
581.05344       0.75948 0.11595
582.27414       0.78151 0.10964
583.49484       0.80253 0.10396
584.71554       0.82263 0.09883
585.93624       0.84188 0.09417
587.15694       0.86034 0.08991
588.37764       0.87807 0.08602
589.59834       0.89513 0.08244
590.81904       0.91156 0.07914
592.03974       0.92741 0.07609
593.26044       0.94271 0.07327
594.48114       0.9575  0.07064
595.70184       0.97182 0.06819
596.92254       0.98568 0.0659
598.14324       0.99913 0.06376
599.36394       1.01219 0.06175
600.58464       1.02487 0.05986
601.80534       1.0372  0.05809
603.02604       1.0492  0.05642
604.24674       1.06089 0.05484
605.46744       1.07228 0.05335
606.68814       1.08339 0.05194
607.90884       1.09423 0.0506
609.12954       1.10482 0.04933
610.35024       1.11516 0.04812
611.57094       1.12528 0.04698
612.79164       1.13518 0.04589
614.01234       1.14487 0.04485
615.23304       1.15436 0.04386
616.45374       1.16366 0.04292
617.67444       1.17277 0.04201
618.89514       1.18172 0.04115
620.11584       1.1905  0.04033
621.33654       1.19911 0.03954
622.55724       1.20758 0.03879
623.77794       1.2159  0.03806
624.99864       1.22408 0.03737
626.21934       1.23213 0.0367
627.44004       1.24004 0.03606
628.66074       1.24783 0.03545
629.88144       1.25551 0.03486
631.10214       1.26307 0.0343
632.32284       1.27052 0.03375
633.54354       1.27786 0.03323
634.76424       1.2851  0.03272
635.98494       1.29224 0.03224
637.20564       1.29929 0.03177
638.42634       1.30625 0.03132
639.64704       1.31312 0.03089
640.86774       1.31991 0.03048
642.08844       1.32662 0.03007
643.30914       1.33325 0.02969
644.52984       1.3398  0.02931
645.75054       1.34628 0.02896
646.97124       1.35269 0.02861
648.19194       1.35904 0.02828
649.41264       1.36532 0.02795
650.63334       1.37154 0.02764
651.85403       1.3777  0.02734
653.07473       1.38381 0.02706
654.29543       1.38985 0.02678
655.51613       1.39585 0.02651
656.73683       1.40179 0.02625
657.95753       1.40769 0.026
659.17823       1.41354 0.02577
660.39893       1.41934 0.02554
661.61963       1.4251  0.02531
662.84033       1.43082 0.0251
664.06103       1.4365  0.0249
665.28173       1.44214 0.0247
666.50243       1.44774 0.02451
667.72313       1.45331 0.02433
668.94383       1.45885 0.02415
670.16453       1.46435 0.02399
671.38523       1.46983 0.02383
672.60593       1.47528 0.02368
673.82663       1.4807  0.02353
675.04733       1.48609 0.02339
676.26803       1.49146 0.02326
677.48873       1.49681 0.02313
678.70943       1.50214 0.02301
679.93013       1.50745 0.0229
681.15083       1.51274 0.02279
682.37153       1.51801 0.02269
683.59223       1.52326 0.02259
684.81293       1.5285  0.0225
686.03363       1.53373 0.02242
687.25433       1.53895 0.02234
688.47503       1.54415 0.02227
689.69573       1.54935 0.0222
690.91643       1.55454 0.02214
692.13713       1.55972 0.02208
693.35783       1.56489 0.02203
694.57853       1.57006 0.02199
695.79923       1.57523 0.02195
697.01993       1.5804  0.02192
698.24063       1.58556 0.02189
699.46133       1.59073 0.02187
700.68203       1.5959  0.02185
701.90273       1.60107 0.02184
703.12343       1.60624 0.02183
704.34413       1.61142 0.02183
705.56483       1.61661 0.02183
706.78553       1.62181 0.02184
708.00623       1.62702 0.02186
709.22693       1.63223 0.02188
710.44763       1.63746 0.02191
711.66833       1.64271 0.02194
712.88903       1.64797 0.02198
714.10973       1.65324 0.02202
715.33043       1.65853 0.02207
716.55113       1.66385 0.02213
717.77183       1.66918 0.02219
718.99253       1.67453 0.02226
720.21323       1.67991 0.02233
721.43393       1.68532 0.02242
722.65463       1.69075 0.0225
723.87533       1.6962  0.0226
725.09603       1.70169 0.0227
726.31673       1.70721 0.0228
727.53743       1.71277 0.02292
728.75813       1.71836 0.02304
729.97883       1.72398 0.02317
731.19953       1.72965 0.02331
732.42023       1.73535 0.02345
733.64093       1.7411  0.0236
734.86163       1.74689 0.02376
736.08233       1.75273 0.02393
737.30303       1.75862 0.02411
738.52373       1.76456 0.02429
739.74443       1.77055 0.02449
740.96513       1.77659 0.02469
742.18583       1.7827  0.02491
743.40653       1.78886 0.02513
744.62723       1.79509 0.02537
745.84793       1.80138 0.02561
747.06863       1.80774 0.02587
748.28933       1.81417 0.02614
749.51003       1.82068 0.02641
750.73073       1.82726 0.02671
751.95142       1.83392 0.02701
753.17212       1.84067 0.02733
754.39282       1.8475  0.02766
755.61352       1.85442 0.02801
756.83422       1.86144 0.02837
758.05492       1.86855 0.02875
759.27562       1.87577 0.02914
760.49632       1.88309 0.02955
761.71702       1.89052 0.02998
762.93772       1.89807 0.03043
764.15842       1.90573 0.0309
765.37912       1.91353 0.03138
766.59982       1.92145 0.03189
767.82052       1.92951 0.03243
769.04122       1.93771 0.03299
770.26192       1.94606 0.03357
771.48262       1.95456 0.03418
772.70332       1.96323 0.03482
773.92402       1.97206 0.03549
775.14472       1.98108 0.03619
776.36542       1.99027 0.03692
777.58612       1.99966 0.03769
778.80682       2.00925 0.0385
780.02752       2.01906 0.03935
781.24822       2.02909 0.04025
782.46892       2.03935 0.04119
783.68962       2.04986 0.04218
784.91032       2.06063 0.04322
786.13102       2.07167 0.04432
787.35172       2.083   0.04548
788.57242       2.09464 0.04671
789.79312       2.10659 0.04802
791.01382       2.11888 0.04939
792.23452       2.13152 0.05086
793.45522       2.14455 0.05242
794.67592       2.15798 0.05407
795.89662       2.17184 0.05584
797.11732       2.18615 0.05773
798.33802       2.20095 0.05975
799.55872       2.21627 0.06191
800.77942       2.23214 0.06424
802.00012       2.2486  0.06675
803.22082       2.26571 0.06946
804.44152       2.2835  0.0724
805.66222       2.30204 0.07559
806.88292       2.32138 0.07907
808.10362       2.34159 0.08288
809.32432       2.36275 0.08706
810.54502       2.38495 0.09167
811.76572       2.40829 0.09678
812.98642       2.43287 0.10246
814.20712       2.45883 0.10883
815.42782       2.48632 0.11601
816.64852       2.5155  0.12415
817.86922       2.54657 0.13345
819.08992       2.57976 0.14416
820.31062       2.61534 0.15661
821.53132       2.65359 0.17123
822.75202       2.69488 0.18858
823.97272       2.73958 0.20944
825.19342       2.7881  0.23484
826.41412       2.84084 0.26624
827.63482       2.89808 0.3057
828.85552       2.9598  0.35608
830.07622       3.02524 0.42152
831.29692       3.09196 0.5077
832.51762       3.15409 0.622
833.73832       3.1991  0.77224
834.95902       3.20398 0.96137
836.17972       3.13589 1.17499
837.40042       2.9699  1.36748
838.62112       2.72293 1.47394
839.84182       2.45952 1.45759
841.06252       2.24802 1.33666
842.28322       2.12236 1.16059
843.50392       2.08125 0.97703
844.72462       2.10411 0.81623
845.94532       2.16656 0.68975
847.16602       2.24965 0.59678
848.38672       2.342   0.53151
849.60742       2.43802 0.48774
850.82812       2.53555 0.46048
852.04881       2.63415 0.44626
853.26951       2.73428 0.44278
854.49021       2.83683 0.44873
855.71091       2.94291 0.46354
856.93161       3.05379 0.4873
858.15231       3.17088 0.5207
859.37301       3.2957  0.56509
860.59371       3.42988 0.62266
861.81441       3.57518 0.69663
863.03511       3.73328 0.79173
864.25581       3.90553 0.91477
865.47651       4.09214 1.07561
866.69721       4.29061 1.28837
867.91791       4.49218 1.57258
869.13861       4.67506 1.95265
870.35931       4.79349 2.45052
871.58001       4.76962 3.06185
872.80071       4.51554 3.71458
874.02141       4.01088 4.26182
875.24211       3.3591  4.57523
876.46281       2.71325 4.64345
877.68351       2.16813 4.54342
878.90421       1.74399 4.35946
880.12491       1.4238  4.14675
881.34561       1.18266 3.93347
882.56631       0.99907 3.73166
883.78701       0.85709 3.54547
885.00771       0.74544 3.37541
886.22841       0.65619 3.2205
887.44911       0.58375 3.07926
888.66981       0.52415 2.95012
889.89051       0.4745  2.83161
891.11121       0.43268 2.72242
892.33191       0.39709 2.6214
893.55261       0.36655 2.52757
894.77331       0.34013 2.44007
895.99401       0.3171  2.35817
897.21471       0.2969  2.28125
898.43541       0.27908 2.20876
899.65611       0.26328 2.14025
900.87681       0.24919 2.07529
902.09751       0.23659 2.01354
903.31821       0.22528 1.95469
904.53891       0.21508 1.89846
905.75961       0.20585 1.84461
906.98031       0.19749 1.79292
908.20101       0.1899  1.74321
909.42171       0.18299 1.6953
910.64241       0.17668 1.64903
911.86311       0.17092 1.60427
913.08381       0.16566 1.5609
914.30451       0.16085 1.51879
915.52521       0.15645 1.47784
916.74591       0.15243 1.43795
917.96661       0.14876 1.39903
919.18731       0.14541 1.361
920.40801       0.14237 1.32378
921.62871       0.13961 1.2873
922.84941       0.13712 1.25149
924.07011       0.13488 1.21628
925.29081       0.1329  1.18161
926.51151       0.13115 1.14741
927.73221       0.12964 1.11364
928.95291       0.12835 1.08022
930.17361       0.1273  1.0471
931.39431       0.12649 1.01423
932.61501       0.12591 0.98153
933.83571       0.12558 0.94897
935.05641       0.12551 0.91647
936.27711       0.12572 0.88395
937.49781       0.12623 0.85137
938.71851       0.12708 0.81863
939.93921       0.12829 0.78567
941.15991       0.12992 0.75238
942.38061       0.13203 0.71868
943.60131       0.13471 0.68445
944.82201       0.13807 0.64958
946.04271       0.14226 0.61391
947.26341       0.14748 0.57732
948.48411       0.154   0.53963
949.70481       0.1622  0.50069
950.92551       0.17264 0.46039
952.1462        0.18606 0.41875
953.3669        0.20344 0.37605
954.5876        0.22591 0.33317
955.8083        0.2543  0.29178
957.029 0.2884  0.25417
958.2497        0.32663 0.22221
959.4704        0.36676 0.19652
960.6911        0.40698 0.17651
961.9118        0.44628 0.16114
963.1325        0.48433 0.14944
964.3532        0.52117 0.14069
965.5739        0.55702 0.13439
966.7946        0.59219 0.13031
968.0153        0.62706 0.12836
969.236 0.66205 0.12869
970.4567        0.69761 0.13166
971.6774        0.73423 0.13797
972.8981        0.77243 0.14879
974.1188        0.81256 0.16607
975.3395        0.85443 0.19305
976.5602        0.89616 0.2349
977.7809        0.93117 0.29885
979.0016        0.94257 0.39016
980.2223        0.90216 0.49649
981.443 0.79825 0.57298
982.6637        0.66848 0.57956
983.8844        0.56241 0.52478
985.1051        0.49945 0.44083
986.3258        0.47649 0.35294
987.5465        0.48312 0.27572
988.7672        0.50707 0.21548
989.9879        0.53794 0.17175
991.2086        0.56956 0.14074
992.4293        0.59934 0.11853
993.65  0.62658 0.10222
994.8707        0.65128 0.08992
996.0914        0.67372 0.08039
997.3121        0.69421 0.07282
998.5328        0.71302 0.06668
999.7535        0.7304  0.0616
1000.9742       0.74654 0.05734
1002.1949       0.76163 0.0537
1003.4156       0.77579 0.05057
1004.6363       0.78914 0.04783
1005.857        0.80177 0.04541
1007.0777       0.81376 0.04326
1008.2984       0.82517 0.04134
1009.5191       0.83607 0.0396
1010.7398       0.8465  0.03802
1011.9605       0.85651 0.03657
1013.1812       0.86613 0.03525
1014.4019       0.87538 0.03403
1015.6226       0.88431 0.03289
1016.8433       0.89293 0.03184
1018.064        0.90126 0.03086
1019.2847       0.90933 0.02994
1020.5054       0.91715 0.02907
1021.7261       0.92473 0.02826
1022.9468       0.9321  0.02749
1024.1675       0.93925 0.02677
1025.3882       0.94622 0.02608
1026.6089       0.95299 0.02543
1027.8296       0.9596  0.02481
1029.0503       0.96603 0.02422
1030.271        0.97231 0.02366
1031.4917       0.97843 0.02312
1032.7124       0.98442 0.0226
1033.9331       0.99026 0.02211
1035.1538       0.99597 0.02164
1036.3745       1.00156 0.02118
1037.5952       1.00702 0.02075
1038.8159       1.01237 0.02033
1040.0366       1.01761 0.01992
1041.2573       1.02274 0.01953
1042.478        1.02777 0.01916
1043.6987       1.03269 0.0188
1044.9194       1.03753 0.01845
1046.1401       1.04226 0.01811
1047.3608       1.04691 0.01778
1048.5815       1.05148 0.01747
1049.8022       1.05596 0.01716
1051.02289      1.06036 0.01686
1052.24359      1.06468 0.01658
1053.46429      1.06892 0.0163
1054.68499      1.07309 0.01603
1055.90569      1.07719 0.01576
1057.12639      1.08123 0.01551
1058.34709      1.08519 0.01526
1059.56779      1.08909 0.01502
1060.78849      1.09293 0.01479
1062.00919      1.0967  0.01456
1063.22989      1.10042 0.01434
1064.45059      1.10407 0.01412
1065.67129      1.10767 0.01391
1066.89199      1.11122 0.01371
1068.11269      1.11471 0.01351
1069.33339      1.11815 0.01331
1070.55409      1.12154 0.01312
1071.77479      1.12488 0.01293
1072.99549      1.12817 0.01275
1074.21619      1.13141 0.01258
1075.43689      1.13461 0.01241
1076.65759      1.13776 0.01224
1077.87829      1.14087 0.01207
1079.09899      1.14394 0.01191
1080.31969      1.14696 0.01175
1081.54039      1.14994 0.0116
1082.76109      1.15289 0.01145
1083.98179      1.15579 0.0113
1085.20249      1.15866 0.01116
1086.42319      1.16149 0.01102
1087.64389      1.16428 0.01088
1088.86459      1.16704 0.01075
1090.08529      1.16976 0.01061
1091.30599      1.17245 0.01048
1092.52669      1.1751  0.01036
1093.74739      1.17772 0.01023
1094.96809      1.18031 0.01011
1096.18879      1.18287 0.00999
1097.40949      1.18539 0.00988
1098.63019      1.18789 0.00976
1099.85089      1.19036 0.00965
1101.07159      1.19279 0.00954
1102.29229      1.1952  0.00943
1103.51299      1.19758 0.00932
1104.73369      1.19994 0.00922
1105.95439      1.20227 0.00912
1107.17509      1.20457 0.00902
1108.39579      1.20684 0.00892
1109.61649      1.20909 0.00882
1110.83719      1.21131 0.00873
1112.05789      1.21351 0.00863
1113.27859      1.21569 0.00854
1114.49929      1.21784 0.00845
1115.71999      1.21997 0.00836
1116.94069      1.22208 0.00828
1118.16139      1.22416 0.00819
1119.38209      1.22622 0.00811
1120.60279      1.22826 0.00803
1121.82349      1.23028 0.00794
1123.04419      1.23228 0.00786
1124.26489      1.23426 0.00779
1125.48559      1.23621 0.00771
1126.70629      1.23815 0.00763
1127.92699      1.24007 0.00756
1129.14769      1.24197 0.00748
1130.36839      1.24385 0.00741
1131.58909      1.24571 0.00734
1132.80979      1.24755 0.00727
1134.03049      1.24938 0.0072
1135.25119      1.25119 0.00713
1136.47189      1.25298 0.00707
1137.69259      1.25475 0.007
1138.91329      1.2565  0.00694
1140.13399      1.25824 0.00687
1141.35469      1.25997 0.00681
1142.57539      1.26167 0.00675
1143.79609      1.26336 0.00669
1145.01679      1.26504 0.00663
1146.23749      1.2667  0.00657
1147.45819      1.26834 0.00651
1148.67889      1.26997 0.00645
1149.89959      1.27159 0.00639
1151.12028      1.27319 0.00634
1152.34098      1.27477 0.00628
1153.56168      1.27635 0.00623
1154.78238      1.2779  0.00617
1156.00308      1.27945 0.00612
1157.22378      1.28098 0.00607
1158.44448      1.2825  0.00602
1159.66518      1.284   0.00597
1160.88588      1.28549 0.00592
1162.10658      1.28697 0.00587
1163.32728      1.28844 0.00582
1164.54798      1.28989 0.00577
1165.76868      1.29133 0.00572
1166.98938      1.29276 0.00568
1168.21008      1.29418 0.00563
1169.43078      1.29559 0.00559
1170.65148      1.29698 0.00554
1171.87218      1.29836 0.0055
1173.09288      1.29973 0.00545
1174.31358      1.30109 0.00541
1175.53428      1.30244 0.00537
1176.75498      1.30378 0.00532
1177.97568      1.30511 0.00528
1179.19638      1.30643 0.00524
1180.41708      1.30773 0.0052
1181.63778      1.30903 0.00516
1182.85848      1.31031 0.00512
1184.07918      1.31159 0.00508
1185.29988      1.31286 0.00504
1186.52058      1.31411 0.00501
1187.74128      1.31536 0.00497
1188.96198      1.3166  0.00493
1190.18268      1.31782 0.0049
1191.40338      1.31904 0.00486
1192.62408      1.32025 0.00482
1193.84478      1.32145 0.00479
1195.06548      1.32264 0.00475
1196.28618      1.32382 0.00472
1197.50688      1.325   0.00468
1198.72758      1.32616 0.00465
1199.94828      1.32732 0.00462
1201.16898      1.32846 0.00458
1202.38968      1.3296  0.00455
1203.61038      1.33073 0.00452
1204.83108      1.33186 0.00449
1206.05178      1.33297 0.00445
1207.27248      1.33408 0.00442
1208.49318      1.33518 0.00439
1209.71388      1.33627 0.00436
1210.93458      1.33735 0.00433
1212.15528      1.33843 0.0043
1213.37598      1.33949 0.00427
1214.59668      1.34055 0.00424
1215.81738      1.34161 0.00421
1217.03808      1.34265 0.00419
1218.25878      1.34369 0.00416
1219.47948      1.34472 0.00413
1220.70018      1.34575 0.0041
1221.92088      1.34676 0.00408
1223.14158      1.34777 0.00405
1224.36228      1.34878 0.00402
1225.58298      1.34977 0.00399
1226.80368      1.35076 0.00397
1228.02438      1.35175 0.00394
1229.24508      1.35272 0.00392
1230.46578      1.35369 0.00389
1231.68648      1.35466 0.00387
1232.90718      1.35561 0.00384
1234.12788      1.35657 0.00382
1235.34858      1.35751 0.00379
1236.56928      1.35845 0.00377
1237.78998      1.35938 0.00374
1239.01068      1.36031 0.00372
1240.23138      1.36123 0.0037
1241.45208      1.36214 0.00367
1242.67278      1.36305 0.00365
1243.89348      1.36396 0.00363
1245.11418      1.36485 0.00361
1246.33488      1.36574 0.00358
1247.55558      1.36663 0.00356
1248.77628      1.36751 0.00354
1249.99698      1.36839 0.00352
1251.21767      1.36926 0.0035
1252.43837      1.37012 0.00348
1253.65907      1.37098 0.00345
1254.87977      1.37183 0.00343
1256.10047      1.37268 0.00341
1257.32117      1.37352 0.00339
1258.54187      1.37436 0.00337
1259.76257      1.37519 0.00335
1260.98327      1.37602 0.00333
1262.20397      1.37684 0.00331
1263.42467      1.37766 0.00329
1264.64537      1.37847 0.00327
1265.86607      1.37928 0.00326
1267.08677      1.38009 0.00324
1268.30747      1.38088 0.00322
1269.52817      1.38168 0.0032
1270.74887      1.38247 0.00318
1271.96957      1.38325 0.00316
1273.19027      1.38403 0.00314
1274.41097      1.38481 0.00313
1275.63167      1.38558 0.00311
1276.85237      1.38634 0.00309
1278.07307      1.3871  0.00307
1279.29377      1.38786 0.00306
1280.51447      1.38861 0.00304
1281.73517      1.38936 0.00302
1282.95587      1.39011 0.003
1284.17657      1.39085 0.00299
1285.39727      1.39158 0.00297
1286.61797      1.39232 0.00295
1287.83867      1.39304 0.00294
1289.05937      1.39377 0.00292
1290.28007      1.39449 0.00291
1291.50077      1.3952  0.00289
1292.72147      1.39591 0.00287
1293.94217      1.39662 0.00286
1295.16287      1.39733 0.00284
1296.38357      1.39802 0.00283
1297.60427      1.39872 0.00281
1298.82497      1.39941 0.0028
1300.04567      1.4001  0.00278
1301.26637      1.40079 0.00277
1302.48707      1.40147 0.00275
1303.70777      1.40214 0.00274
1304.92847      1.40282 0.00272
1306.14917      1.40349 0.00271
1307.36987      1.40415 0.0027
1308.59057      1.40482 0.00268
1309.81127      1.40548 0.00267
1311.03197      1.40613 0.00265
1312.25267      1.40678 0.00264
1313.47337      1.40743 0.00263
1314.69407      1.40808 0.00261
1315.91477      1.40872 0.0026
1317.13547      1.40936 0.00259
1318.35617      1.40999 0.00257
1319.57687      1.41063 0.00256
1320.79757      1.41125 0.00255
1322.01827      1.41188 0.00253
1323.23897      1.4125  0.00252
1324.45967      1.41312 0.00251
1325.68037      1.41374 0.0025
1326.90107      1.41435 0.00248
1328.12177      1.41496 0.00247
1329.34247      1.41556 0.00246
1330.56317      1.41617 0.00245
1331.78387      1.41677 0.00243
1333.00457      1.41737 0.00242
1334.22527      1.41796 0.00241
1335.44597      1.41855 0.0024
1336.66667      1.41914 0.00239
1337.88737      1.41972 0.00237
1339.10807      1.42031 0.00236
1340.32877      1.42089 0.00235
1341.54947      1.42146 0.00234
1342.77017      1.42204 0.00233
1343.99087      1.42261 0.00232
1345.21157      1.42318 0.00231
1346.43227      1.42374 0.0023
1347.65297      1.4243  0.00228
1348.87367      1.42486 0.00227
1350.09437      1.42542 0.00226
1351.31506      1.42597 0.00225
1352.53576      1.42653 0.00224
1353.75646      1.42707 0.00223
1354.97716      1.42762 0.00222
1356.19786      1.42816 0.00221
1357.41856      1.42871 0.0022
1358.63926      1.42924 0.00219
1359.85996      1.42978 0.00218
1361.08066      1.43031 0.00217
1362.30136      1.43084 0.00216
1363.52206      1.43137 0.00215
1364.74276      1.4319  0.00214
1365.96346      1.43242 0.00213
1367.18416      1.43294 0.00212
1368.40486      1.43346 0.00211
1369.62556      1.43398 0.0021
1370.84626      1.43449 0.00209
1372.06696      1.435   0.00208
1373.28766      1.43551 0.00207
1374.50836      1.43602 0.00206
1375.72906      1.43652 0.00205
1376.94976      1.43702 0.00204
1378.17046      1.43752 0.00203
1379.39116      1.43802 0.00202
1380.61186      1.43852 0.00202
1381.83256      1.43901 0.00201
1383.05326      1.4395  0.002
1384.27396      1.43999 0.00199
1385.49466      1.44047 0.00198
1386.71536      1.44096 0.00197
1387.93606      1.44144 0.00196
1389.15676      1.44192 0.00195
1390.37746      1.4424  0.00195
1391.59816      1.44287 0.00194
1392.81886      1.44334 0.00193
1394.03956      1.44382 0.00192
1395.26026      1.44428 0.00191
1396.48096      1.44475 0.0019
1397.70166      1.44522 0.00189
1398.92236      1.44568 0.00189
1400.14306      1.44614 0.00188
1401.36376      1.4466  0.00187
1402.58446      1.44705 0.00186
1403.80516      1.44751 0.00185
1405.02586      1.44796 0.00185
1406.24656      1.44841 0.00184
1407.46726      1.44886 0.00183
1408.68796      1.44931 0.00182
1409.90866      1.44975 0.00182
1411.12936      1.4502  0.00181
1412.35006      1.45064 0.0018
1413.57076      1.45108 0.00179
1414.79146      1.45151 0.00178
1416.01216      1.45195 0.00178
1417.23286      1.45238 0.00177
1418.45356      1.45281 0.00176
1419.67426      1.45324 0.00176
1420.89496      1.45367 0.00175
1422.11566      1.4541  0.00174
1423.33636      1.45452 0.00173
1424.55706      1.45494 0.00173
1425.77776      1.45537 0.00172
1426.99846      1.45578 0.00171
1428.21916      1.4562  0.0017
1429.43986      1.45662 0.0017
1430.66056      1.45703 0.00169
1431.88126      1.45744 0.00168
1433.10196      1.45785 0.00168
1434.32266      1.45826 0.00167
1435.54336      1.45867 0.00166
1436.76406      1.45907 0.00166
1437.98476      1.45948 0.00165
1439.20546      1.45988 0.00164
1440.42616      1.46028 0.00164
1441.64686      1.46068 0.00163
1442.86756      1.46108 0.00162
1444.08826      1.46147 0.00162
1445.30896      1.46187 0.00161
1446.52966      1.46226 0.0016
1447.75036      1.46265 0.0016
1448.97106      1.46304 0.00159
1450.19176      1.46343 0.00159
1451.41245      1.46381 0.00158
1452.63315      1.4642  0.00157
1453.85385      1.46458 0.00157
1455.07455      1.46496 0.00156
1456.29525      1.46534 0.00155
1457.51595      1.46572 0.00155
1458.73665      1.46609 0.00154
1459.95735      1.46647 0.00154
1461.17805      1.46684 0.00153
1462.39875      1.46722 0.00152
1463.61945      1.46759 0.00152
1464.84015      1.46796 0.00151
1466.06085      1.46832 0.00151
1467.28155      1.46869 0.0015
1468.50225      1.46906 0.0015
1469.72295      1.46942 0.00149
1470.94365      1.46978 0.00148
1472.16435      1.47014 0.00148
1473.38505      1.4705  0.00147
1474.60575      1.47086 0.00147
1475.82645      1.47122 0.00146
1477.04715      1.47157 0.00146
1478.26785      1.47193 0.00145
1479.48855      1.47228 0.00144
1480.70925      1.47263 0.00144
1481.92995      1.47298 0.00143
1483.15065      1.47333 0.00143
1484.37135      1.47368 0.00142
1485.59205      1.47402 0.00142
1486.81275      1.47437 0.00141
1488.03345      1.47471 0.00141
1489.25415      1.47505 0.0014
1490.47485      1.47539 0.0014
1491.69555      1.47573 0.00139
1492.91625      1.47607 0.00139
1494.13695      1.47641 0.00138
1495.35765      1.47674 0.00138
1496.57835      1.47708 0.00137
1497.79905      1.47741 0.00137
1499.01975      1.47774 0.00136
1500.24045      1.47807 0.00136
1501.46115      1.4784  0.00135
1502.68185      1.47873 0.00135
1503.90255      1.47905 0.00134
1505.12325      1.47938 0.00134
1506.34395      1.47971 0.00133
1507.56465      1.48003 0.00133
1508.78535      1.48035 0.00132
1510.00605      1.48067 0.00132
1511.22675      1.48099 0.00131
1512.44745      1.48131 0.00131
1513.66815      1.48163 0.0013
1514.88885      1.48194 0.0013
1516.10955      1.48226 0.00129
1517.33025      1.48257 0.00129
1518.55095      1.48288 0.00128
1519.77165      1.4832  0.00128
1520.99235      1.48351 0.00128
1522.21305      1.48382 0.00127
1523.43375      1.48412 0.00127
1524.65445      1.48443 0.00126
1525.87515      1.48474 0.00126
1527.09585      1.48504 0.00125
1528.31655      1.48535 0.00125
1529.53725      1.48565 0.00124
1530.75795      1.48595 0.00124
1531.97865      1.48625 0.00124
1533.19935      1.48655 0.00123
1534.42005      1.48685 0.00123
1535.64075      1.48715 0.00122
1536.86145      1.48744 0.00122
1538.08215      1.48774 0.00121
1539.30285      1.48803 0.00121
1540.52355      1.48833 0.00121
1541.74425      1.48862 0.0012
1542.96495      1.48891 0.0012
1544.18565      1.4892  0.00119
1545.40635      1.48949 0.00119
1546.62705      1.48978 0.00119
1547.84775      1.49007 0.00118
1549.06845      1.49035 0.00118
1550.28915      1.49064 0.00117
1551.50984      1.49092 0.00117
1552.73054      1.4912  0.00116
1553.95124      1.49149 0.00116
1555.17194      1.49177 0.00116
1556.39264      1.49205 0.00115
1557.61334      1.49233 0.00115
1558.83404      1.49261 0.00115
1560.05474      1.49288 0.00114
1561.27544      1.49316 0.00114
1562.49614      1.49344 0.00113
1563.71684      1.49371 0.00113
1564.93754      1.49398 0.00113
1566.15824      1.49426 0.00112
1567.37894      1.49453 0.00112
1568.59964      1.4948  0.00111
1569.82034      1.49507 0.00111
1571.04104      1.49534 0.00111
1572.26174      1.49561 0.0011
1573.48244      1.49587 0.0011
1574.70314      1.49614 0.0011
1575.92384      1.49641 0.00109
1577.14454      1.49667 0.00109
1578.36524      1.49693 0.00109
1579.58594      1.4972  0.00108
1580.80664      1.49746 0.00108
1582.02734      1.49772 0.00108
1583.24804      1.49798 0.00107
1584.46874      1.49824 0.00107
1585.68944      1.4985  0.00106
1586.91014      1.49875 0.00106
1588.13084      1.49901 0.00106
1589.35154      1.49927 0.00105
1590.57224      1.49952 0.00105
1591.79294      1.49978 0.00105
1593.01364      1.50003 0.00104
1594.23434      1.50028 0.00104
1595.45504      1.50053 0.00104
1596.67574      1.50079 0.00103
1597.89644      1.50104 0.00103
1599.11714      1.50128 0.00103
1600.33784      1.50153 0.00102
1601.55854      1.50178 0.00102
1602.77924      1.50203 0.00102
1603.99994      1.50227 0.00101
1605.22064      1.50252 0.00101
1606.44134      1.50276 0.00101
1607.66204      1.50301 0.001
1608.88274      1.50325 0.001
1610.10344      1.50349 9.98308E-4
1611.32414      1.50373 9.95142E-4
1612.54484      1.50397 9.9201E-4
1613.76554      1.50421 9.88911E-4
1614.98624      1.50445 9.85744E-4
1616.20694      1.50469 9.82612E-4
1617.42764      1.50493 9.7958E-4
1618.64834      1.50517 9.76514E-4
1619.86904      1.5054  9.73415E-4
1621.08974      1.50564 9.70383E-4
1622.31044      1.50587 9.67383E-4
1623.53114      1.50611 9.64384E-4
1624.75184      1.50634 9.61385E-4
1625.97254      1.50657 9.58386E-4
1627.19324      1.5068  9.55386E-4
1628.41394      1.50703 9.52454E-4
1629.63464      1.50726 9.49488E-4
1630.85534      1.50749 9.46556E-4
1632.07604      1.50772 9.43656E-4
1633.29674      1.50795 9.40757E-4
1634.51744      1.50818 9.37858E-4
1635.73814      1.5084  9.34958E-4
1636.95884      1.50863 9.32059E-4
1638.17954      1.50885 9.29227E-4
1639.40024      1.50908 9.26361E-4
1640.62094      1.5093  9.23528E-4
1641.84164      1.50953 9.20729E-4
1643.06234      1.50975 9.17929E-4
1644.28304      1.50997 9.1513E-4
1645.50374      1.51019 9.12331E-4
1646.72444      1.51041 9.09598E-4
1647.94514      1.51063 9.06832E-4
1649.16584      1.51085 9.041E-4
1650.38654      1.51107 9.01334E-4
1651.60723      1.51128 8.98601E-4
1652.82793      1.5115  8.95902E-4
1654.04863      1.51172 8.93202E-4
1655.26933      1.51193 8.90569E-4
1656.49003      1.51215 8.87904E-4
1657.71073      1.51236 8.85204E-4
1658.93143      1.51258 8.82571E-4
1660.15213      1.51279 8.79906E-4
1661.37283      1.513   8.77273E-4
1662.59353      1.51321 8.74673E-4
1663.81423      1.51342 8.72074E-4
1665.03493      1.51364 8.69475E-4
1666.25563      1.51385 8.66875E-4
1667.47633      1.51405 8.64342E-4
1668.69703      1.51426 8.61777E-4
1669.91773      1.51447 8.59243E-4
1671.13843      1.51468 8.56678E-4
1672.35913      1.51488 8.54145E-4
1673.57983      1.51509 8.51645E-4
1674.80053      1.5153  8.49146E-4
1676.02123      1.5155  8.46647E-4
1677.24193      1.51571 8.44147E-4
1678.46263      1.51591 8.41714E-4
1679.68333      1.51611 8.39248E-4
1680.90403      1.51631 8.36749E-4
1682.12473      1.51652 8.34316E-4
1683.34543      1.51672 8.31916E-4
1684.56613      1.51692 8.29517E-4
1685.78683      1.51712 8.27051E-4
1687.00753      1.51732 8.24684E-4
1688.22823      1.51752 8.22319E-4
1689.44893      1.51772 8.19919E-4
1690.66963      1.51791 8.1752E-4
1691.89033      1.51811 8.15186E-4
1693.11103      1.51831 8.12821E-4
1694.33173      1.5185  8.10487E-4
1695.55243      1.5187  8.08122E-4
1696.77313      1.51889 8.05788E-4
1697.99383      1.51909 8.03489E-4
1699.21453      1.51928 8.0119E-4
1700.43523      1.51947 7.9889E-4
1701.65593      1.51967 7.96591E-4
1702.87663      1.51986 7.94357E-4
1704.09733      1.52005 7.92092E-4
1705.31803      1.52024 7.89792E-4
1706.53873      1.52043 7.87558E-4
1707.75943      1.52062 7.85359E-4
1708.98013      1.52081 7.83094E-4
1710.20083      1.521   7.8086E-4
1711.42153      1.52119 7.78661E-4
1712.64223      1.52138 7.76461E-4
1713.86293      1.52156 7.74262E-4
1715.08363      1.52175 7.72128E-4
1716.30433      1.52193 7.69963E-4
1717.52503      1.52212 7.67763E-4
1718.74573      1.52231 7.65629E-4
1719.96643      1.52249 7.63465E-4
1721.18713      1.52267 7.6133E-4
1722.40783      1.52286 7.59231E-4
1723.62853      1.52304 7.57066E-4
1724.84923      1.52322 7.54932E-4
1726.06993      1.5234  7.52832E-4
1727.29063      1.52359 7.50733E-4
1728.51133      1.52377 7.48633E-4
1729.73203      1.52395 7.46599E-4
1730.95273      1.52413 7.44534E-4
1732.17343      1.52431 7.42435E-4
1733.39413      1.52449 7.404E-4
1734.61483      1.52466 7.38336E-4
1735.83553      1.52484 7.36301E-4
1737.05623      1.52502 7.34302E-4
1738.27693      1.5252  7.32237E-4
1739.49763      1.52537 7.30203E-4
1740.71833      1.52555 7.28203E-4
1741.93903      1.52572 7.26204E-4
1743.15973      1.5259  7.24204E-4
1744.38043      1.52607 7.2227E-4
1745.60113      1.52625 7.20305E-4
1746.82183      1.52642 7.18306E-4
1748.04253      1.52659 7.16371E-4
1749.26323      1.52676 7.14407E-4
1750.48393      1.52694 7.12472E-4
1751.70462      1.52711 7.10508E-4
1752.92532      1.52728 7.08573E-4
1754.14602      1.52745 7.06673E-4
1755.36672      1.52762 7.04774E-4
1756.58742      1.52779 7.02874E-4
1757.80812      1.52796 7.00975E-4
1759.02882      1.52813 6.99075E-4
1760.24952      1.5283  6.97176E-4
1761.47022      1.52846 6.95276E-4
1762.69092      1.52863 6.93441E-4
1763.91162      1.5288  6.91577E-4
1765.13232      1.52896 6.89678E-4
1766.35302      1.52913 6.87842E-4
1767.57372      1.5293  6.86043E-4
1768.79442      1.52946 6.84179E-4
1770.01512      1.52963 6.82344E-4
1771.23582      1.52979 6.80544E-4
1772.45652      1.52995 6.78745E-4
1773.67722      1.53012 6.76945E-4
1774.89792      1.53028 6.75146E-4
1776.11862      1.53044 6.73346E-4
1777.33932      1.5306  6.71546E-4
1778.56002      1.53077 6.69747E-4
1779.78072      1.53093 6.67947E-4
1781.00142      1.53109 6.66212E-4
1782.22212      1.53125 6.64448E-4
1783.44282      1.53141 6.62713E-4
1784.66352      1.53157 6.60949E-4
1785.88422      1.53173 6.59213E-4
1787.10492      1.53188 6.57514E-4
1788.32562      1.53204 6.5575E-4
1789.54632      1.5322  6.54015E-4
1790.76702      1.53236 6.52315E-4
1791.98772      1.53251 6.50615E-4
1793.20842      1.53267 6.48916E-4
1794.42912      1.53283 6.47216E-4
1795.64982      1.53298 6.45517E-4
1796.87052      1.53314 6.43817E-4
1798.09122      1.53329 6.42181E-4
1799.31192      1.53345 6.40518E-4
1800.53262      1.5336  6.38818E-4
1801.75332      1.53376 6.37182E-4
1802.97402      1.53391 6.35519E-4
1804.19472      1.53406 6.33883E-4
1805.41542      1.53421 6.32284E-4
1806.63612      1.53437 6.30621E-4
1807.85682      1.53452 6.28984E-4
1809.07752      1.53467 6.27385E-4
1810.29822      1.53482 6.25785E-4
1811.51892      1.53497 6.24186E-4
1812.73962      1.53512 6.22586E-4
1813.96032      1.53527 6.20986E-4
1815.18102      1.53542 6.19387E-4
1816.40172      1.53557 6.17787E-4
1817.62242      1.53572 6.16188E-4
1818.84312      1.53586 6.14588E-4
1820.06382      1.53601 6.13052E-4
1821.28452      1.53616 6.11489E-4
1822.50522      1.53631 6.09952E-4
1823.72592      1.53645 6.0839E-4
1824.94662      1.5366  6.06853E-4
1826.16732      1.53675 6.0529E-4
1827.38802      1.53689 6.03754E-4
1828.60872      1.53704 6.02254E-4
1829.82942      1.53718 6.00692E-4
1831.05012      1.53732 5.99155E-4
1832.27082      1.53747 5.97655E-4
1833.49152      1.53761 5.96156E-4
1834.71222      1.53776 5.94656E-4
1835.93292      1.5379  5.93156E-4
1837.15362      1.53804 5.91657E-4
1838.37432      1.53818 5.90157E-4
1839.59502      1.53832 5.8872E-4
1840.81572      1.53847 5.87258E-4
1842.03642      1.53861 5.85758E-4
1843.25712      1.53875 5.84321E-4
1844.47782      1.53889 5.82859E-4
1845.69852      1.53903 5.81359E-4
1846.91922      1.53917 5.79922E-4
1848.13992      1.53931 5.78523E-4
1849.36062      1.53945 5.77061E-4
1850.58132      1.53959 5.75623E-4
1851.80201      1.53972 5.74224E-4
1853.02271      1.53986 5.72762E-4
1854.24341      1.54    5.71324E-4
1855.46411      1.54014 5.69925E-4
1856.68481      1.54027 5.68525E-4
1857.90551      1.54041 5.67126E-4
1859.12621      1.54055 5.65726E-4
1860.34691      1.54068 5.64326E-4
1861.56761      1.54082 5.62927E-4
1862.78831      1.54095 5.61527E-4
1864.00901      1.54109 5.6019E-4
1865.22971      1.54122 5.58828E-4
1866.45041      1.54136 5.57428E-4
1867.67111      1.54149 5.56091E-4
1868.89181      1.54162 5.54729E-4
1870.11251      1.54176 5.53329E-4
1871.33321      1.54189 5.51992E-4
1872.55391      1.54202 5.50692E-4
1873.77461      1.54215 5.4933E-4
1874.99531      1.54229 5.47992E-4
1876.21601      1.54242 5.46631E-4
1877.43671      1.54255 5.45293E-4
1878.65741      1.54268 5.43993E-4
1879.87811      1.54281 5.42694E-4
1881.09881      1.54294 5.41394E-4
1882.31951      1.54307 5.40094E-4
1883.54021      1.5432  5.38795E-4
1884.76091      1.54333 5.37495E-4
1885.98161      1.54346 5.36195E-4
1887.20231      1.54359 5.34896E-4
1888.42301      1.54372 5.33596E-4
1889.64371      1.54384 5.32296E-4
1890.86441      1.54397 5.30997E-4
1892.08511      1.5441  5.29759E-4
1893.30581      1.54423 5.28497E-4
1894.52651      1.54435 5.27198E-4
1895.74721      1.54448 5.2596E-4
1896.96791      1.54461 5.24698E-4
1898.18861      1.54473 5.2346E-4
1899.40931      1.54486 5.22199E-4
1900.63001      1.54498 5.20961E-4
1901.85071      1.54511 5.197E-4
1903.07141      1.54523 5.18461E-4
1904.29211      1.54536 5.17262E-4
1905.51281      1.54548 5.16001E-4
1906.73351      1.5456  5.14762E-4
1907.95421      1.54573 5.13563E-4
1909.17491      1.54585 5.12363E-4
1910.39561      1.54597 5.11163E-4
1911.61631      1.5461  5.09963E-4
1912.83701      1.54622 5.08764E-4
1914.05771      1.54634 5.07564E-4
1915.27841      1.54646 5.06364E-4
1916.49911      1.54658 5.05165E-4
1917.71981      1.54671 5.03965E-4
1918.94051      1.54683 5.02765E-4
1920.16121      1.54695 5.01566E-4
1921.38191      1.54707 5.00427E-4
1922.60261      1.54719 4.99266E-4
1923.82331      1.54731 4.98066E-4
1925.04401      1.54743 4.96928E-4
1926.26471      1.54755 4.95767E-4
1927.48541      1.54766 4.94567E-4
1928.70611      1.54778 4.93429E-4
1929.92681      1.5479  4.92268E-4
1931.14751      1.54802 4.91129E-4
1932.36821      1.54814 4.90029E-4
1933.58891      1.54826 4.88869E-4
1934.80961      1.54837 4.8773E-4
1936.03031      1.54849 4.8663E-4
1937.25101      1.54861 4.8547E-4
1938.47171      1.54872 4.84331E-4
1939.69241      1.54884 4.83231E-4
1940.91311      1.54895 4.82131E-4
1942.13381      1.54907 4.81032E-4
1943.35451      1.54919 4.79932E-4
1944.57521      1.5493  4.78832E-4
1945.79591      1.54942 4.77732E-4
1947.01661      1.54953 4.76633E-4
1948.23731      1.54964 4.75533E-4
1949.45801      1.54976 4.74433E-4
1950.67871      1.54987 4.73334E-4
1951.8994       1.54999 4.72234E-4
1953.1201       1.5501  4.71134E-4
1954.3408       1.55021 4.70095E-4
1955.5615       1.55032 4.69035E-4
1956.7822       1.55044 4.67935E-4
1958.0029       1.55055 4.66896E-4
1959.2236       1.55066 4.65835E-4
1960.4443       1.55077 4.64736E-4
1961.665        1.55088 4.63696E-4
1962.8857       1.551   4.62636E-4
1964.1064       1.55111 4.61597E-4
1965.3271       1.55122 4.60537E-4
1966.5478       1.55133 4.59497E-4
1967.7685       1.55144 4.58498E-4
1968.9892       1.55155 4.57438E-4
1970.2099       1.55166 4.56398E-4
1971.4306       1.55177 4.55398E-4
1972.6513       1.55188 4.54338E-4
1973.872        1.55198 4.53299E-4
1975.0927       1.55209 4.52299E-4
1976.3134       1.5522  4.51299E-4
1977.5341       1.55231 4.503E-4
1978.7548       1.55242 4.493E-4
1979.9755       1.55253 4.483E-4
1981.1962       1.55263 4.473E-4
1982.4169       1.55274 4.46301E-4
1983.6376       1.55285 4.45301E-4
1984.8583       1.55295 4.44301E-4
1986.079        1.55306 4.43301E-4
1987.2997       1.55317 4.42302E-4
1988.5204       1.55327 4.41302E-4
1989.7411       1.55338 4.40302E-4
1990.9618       1.55348 4.39362E-4
1992.1825       1.55359 4.38403E-4
1993.4032       1.55369 4.37403E-4
1994.6239       1.5538  4.36403E-4
1995.8446       1.5539  4.35463E-4
1997.0653       1.55401 4.34504E-4
1998.286        1.55411 4.33563E-4
1999.5067       1.55422 4.32604E-4
2000.7274       1.55432 4.31604E-4
2001.9481       1.55442 4.30664E-4
2003.1688       1.55453 4.29705E-4
2004.3895       1.55463 4.28764E-4
2005.6102       1.55473 4.27865E-4
2006.8309       1.55483 4.26906E-4
2008.0516       1.55494 4.25965E-4
2009.2723       1.55504 4.25065E-4
2010.493        1.55514 4.24106E-4
2011.7137       1.55524 4.23166E-4
2012.9344       1.55534 4.22266E-4
2014.1551       1.55544 4.21366E-4
2015.3758       1.55554 4.20407E-4
2016.5965       1.55565 4.19467E-4
2017.8172       1.55575 4.18567E-4
2019.0379       1.55585 4.17667E-4
2020.2586       1.55595 4.16767E-4
2021.4793       1.55605 4.15868E-4
2022.7  1.55615 4.14968E-4
2023.9207       1.55624 4.14068E-4
2025.1414       1.55634 4.13168E-4
2026.3621       1.55644 4.12269E-4
2027.5828       1.55654 4.11369E-4
2028.8035       1.55664 4.10469E-4
2030.0242       1.55674 4.09569E-4
2031.2449       1.55684 4.08669E-4
2032.4656       1.55693 4.07829E-4
2033.6863       1.55703 4.0697E-4
2034.907        1.55713 4.0607E-4
2036.1277       1.55723 4.0517E-4
2037.3484       1.55732 4.04329E-4
2038.5691       1.55742 4.03471E-4
2039.7898       1.55752 4.02571E-4
2041.0105       1.55761 4.0173E-4
2042.2312       1.55771 4.00871E-4
2043.4519       1.55781 4.0003E-4
2044.6726       1.5579  3.99172E-4
2045.8933       1.558   3.98331E-4
2047.114        1.55809 3.97472E-4
2048.3347       1.55819 3.96631E-4
2049.5554       1.55828 3.95773E-4
2050.77609      1.55838 3.94931E-4
2051.99679      1.55847 3.94073E-4
2053.21749      1.55857 3.93232E-4
2054.43819      1.55866 3.92432E-4
2055.65889      1.55875 3.91574E-4
2056.87959      1.55885 3.90732E-4
2058.10029      1.55894 3.89933E-4
2059.32099      1.55903 3.89075E-4
2060.54169      1.55913 3.88233E-4
2061.76239      1.55922 3.87433E-4
2062.98309      1.55931 3.86633E-4
2064.20379      1.55941 3.85834E-4
2065.42449      1.5595  3.85034E-4
2066.64519      1.55959 3.84234E-4
2067.86589      1.55968 3.83376E-4
2069.08659      1.55977 3.82534E-4
2070.30729      1.55987 3.81735E-4
2071.52799      1.55996 3.80935E-4
2072.74869      1.56005 3.80135E-4
2073.96939      1.56014 3.79335E-4
2075.19009      1.56023 3.78535E-4
2076.41079      1.56032 3.77794E-4
2077.63149      1.56041 3.77036E-4
2078.85219      1.5605  3.76236E-4
2080.07289      1.56059 3.75436E-4
2081.29359      1.56068 3.74636E-4
2082.51429      1.56077 3.73837E-4
2083.73499      1.56086 3.73095E-4
2084.95569      1.56095 3.72337E-4
2086.17639      1.56104 3.71537E-4
2087.39709      1.56113 3.70737E-4
2088.61779      1.56122 3.69995E-4
2089.83849      1.56131 3.69238E-4
2091.05919      1.56139 3.68438E-4
2092.27989      1.56148 3.67696E-4
2093.50059      1.56157 3.66938E-4
2094.72129      1.56166 3.66196E-4
2095.94199      1.56175 3.65439E-4
2097.16269      1.56183 3.64697E-4
2098.38339      1.56192 3.63939E-4
2099.60409      1.56201 3.63197E-4
2100.82479      1.56209 3.6244E-4
2102.04549      1.56218 3.61697E-4
2103.26619      1.56227 3.6094E-4
2104.48689      1.56235 3.60198E-4
2105.70759      1.56244 3.5944E-4
2106.92829      1.56253 3.58698E-4
2108.14899      1.56261 3.57998E-4
2109.36969      1.5627  3.57241E-4
2110.59039      1.56278 3.56499E-4
2111.81109      1.56287 3.55799E-4
2113.03179      1.56295 3.55099E-4
2114.25249      1.56304 3.54342E-4
2115.47319      1.56312 3.53599E-4
2116.69389      1.56321 3.52899E-4
2117.91459      1.56329 3.522E-4
2119.13529      1.56338 3.515E-4
2120.35599      1.56346 3.508E-4
2121.57669      1.56354 3.50043E-4
2122.79739      1.56363 3.493E-4
2124.01809      1.56371 3.486E-4
2125.23879      1.56379 3.47901E-4
2126.45949      1.56388 3.47201E-4
2127.68019      1.56396 3.46501E-4
2128.90089      1.56404 3.45801E-4
2130.12159      1.56413 3.45101E-4
2131.34229      1.56421 3.44401E-4
2132.56299      1.56429 3.43702E-4
2133.78369      1.56437 3.43002E-4
2135.00439      1.56446 3.42359E-4
2136.22509      1.56454 3.41702E-4
2137.44579      1.56462 3.41002E-4
2138.66649      1.5647  3.40302E-4
2139.88719      1.56478 3.39603E-4
2141.10789      1.56486 3.38903E-4
2142.32859      1.56494 3.3826E-4
2143.54929      1.56502 3.37603E-4
2144.76999      1.56511 3.36903E-4
2145.99069      1.56519 3.36204E-4
2147.21139      1.56527 3.3556E-4
2148.43209      1.56535 3.34904E-4
2149.65279      1.56543 3.34204E-4
2150.87348      1.56551 3.33561E-4
2152.09418      1.56559 3.32904E-4
2153.31488      1.56567 3.32205E-4
2154.53558      1.56575 3.31561E-4
2155.75628      1.56582 3.30905E-4
2156.97698      1.5659  3.30262E-4
2158.19768      1.56598 3.29605E-4
2159.41838      1.56606 3.28962E-4
2160.63908      1.56614 3.28306E-4
2161.85978      1.56622 3.27662E-4
2163.08048      1.5663  3.27006E-4
2164.30118      1.56638 3.26362E-4
2165.52188      1.56645 3.25706E-4
2166.74258      1.56653 3.25063E-4
2167.96328      1.56661 3.24463E-4
2169.18398      1.56669 3.23807E-4
2170.40468      1.56676 3.23163E-4
2171.62538      1.56684 3.22507E-4
2172.84608      1.56692 3.21863E-4
2174.06678      1.567   3.21264E-4
2175.28748      1.56707 3.20664E-4
2176.50818      1.56715 3.20008E-4
2177.72888      1.56722 3.19364E-4
2178.94958      1.5673  3.18764E-4
2180.17028      1.56738 3.18164E-4
2181.39098      1.56745 3.17509E-4
2182.61168      1.56753 3.16865E-4
2183.83238      1.56761 3.16265E-4
2185.05308      1.56768 3.15665E-4
2186.27378      1.56776 3.15065E-4
2187.49448      1.56783 3.14465E-4
2188.71518      1.56791 3.1381E-4
2189.93588      1.56798 3.13165E-4
2191.15658      1.56806 3.12566E-4
2192.37728      1.56813 3.11966E-4
2193.59798      1.56821 3.11366E-4
2194.81868      1.56828 3.10766E-4
2196.03938      1.56835 3.10166E-4
2197.26008      1.56843 3.09566E-4
2198.48078      1.5685  3.08967E-4
2199.70148      1.56858 3.08367E-4
2200.92218      1.56865 3.07767E-4
2202.14288      1.56872 3.07167E-4
2203.36358      1.5688  3.06567E-4
2204.58428      1.56887 3.06023E-4
2205.80498      1.56894 3.05467E-4
2207.02568      1.56902 3.04868E-4
2208.24638      1.56909 3.04268E-4
2209.46708      1.56916 3.03668E-4
2210.68778      1.56923 3.03068E-4
2211.90848      1.56931 3.02468E-4
2213.12918      1.56938 3.01924E-4
2214.34988      1.56945 3.01368E-4
2215.57058      1.56952 3.00769E-4
2216.79128      1.5696  3.00169E-4
2218.01198      1.56967 2.99624E-4
2219.23268      1.56974 2.99069E-4
2220.45338      1.56981 2.98469E-4
2221.67408      1.56988 2.97924E-4
2222.89478      1.56995 2.97369E-4
2224.11548      1.57002 2.9677E-4
2225.33618      1.57009 2.96225E-4
2226.55688      1.57017 2.9567E-4
2227.77758      1.57024 2.9507E-4
2228.99828      1.57031 2.94525E-4
2230.21898      1.57038 2.9397E-4
2231.43968      1.57045 2.93425E-4
2232.66038      1.57052 2.92871E-4
2233.88108      1.57059 2.92326E-4
2235.10178      1.57066 2.91771E-4
2236.32248      1.57073 2.91226E-4
2237.54318      1.5708  2.90671E-4
2238.76388      1.57087 2.90126E-4
2239.98458      1.57093 2.89572E-4
2241.20528      1.571   2.89026E-4
2242.42598      1.57107 2.88472E-4
2243.64668      1.57114 2.87927E-4
2244.86738      1.57121 2.87372E-4
2246.08808      1.57128 2.86827E-4
2247.30878      1.57135 2.86327E-4
2248.52948      1.57142 2.85773E-4
2249.75018      1.57148 2.85227E-4
2250.97087      1.57155 2.84727E-4
2252.19157      1.57162 2.84173E-4
2253.41227      1.57169 2.83628E-4
2254.63297      1.57176 2.83128E-4
2255.85367      1.57182 2.82573E-4
2257.07437      1.57189 2.82028E-4
2258.29507      1.57196 2.81528E-4
2259.51577      1.57203 2.81028E-4
2260.73647      1.57209 2.80474E-4
2261.95717      1.57216 2.79929E-4
2263.17787      1.57223 2.79429E-4
2264.39857      1.57229 2.78929E-4
2265.61927      1.57236 2.78429E-4
2266.83997      1.57243 2.77929E-4
2268.06067      1.57249 2.77375E-4
2269.28137      1.57256 2.76829E-4
2270.50207      1.57263 2.76329E-4
2271.72277      1.57269 2.7583E-4
2272.94347      1.57276 2.7533E-4
2274.16417      1.57282 2.7483E-4
2275.38487      1.57289 2.7433E-4
2276.60557      1.57295 2.7383E-4
2277.82627      1.57302 2.7333E-4
2279.04697      1.57308 2.7283E-4
2280.26767      1.57315 2.7233E-4
2281.48837      1.57321 2.71831E-4
2282.70907      1.57328 2.71331E-4
2283.92977      1.57334 2.70831E-4
2285.15047      1.57341 2.70331E-4
2286.37117      1.57347 2.69831E-4
2287.59187      1.57354 2.69331E-4
2288.81257      1.5736  2.68831E-4
2290.03327      1.57367 2.68331E-4
2291.25397      1.57373 2.67832E-4
2292.47467      1.57379 2.67332E-4
2293.69537      1.57386 2.66832E-4
2294.91607      1.57392 2.66332E-4
2296.13677      1.57399 2.65886E-4
2297.35747      1.57405 2.65432E-4
2298.57817      1.57411 2.64932E-4
2299.79887      1.57418 2.64432E-4
2301.01957      1.57424 2.63932E-4
2302.24027      1.5743  2.63486E-4
2303.46097      1.57436 2.63033E-4
2304.68167      1.57443 2.62533E-4
2305.90237      1.57449 2.62033E-4
2307.12307      1.57455 2.61533E-4
2308.34377      1.57461 2.61087E-4
2309.56447      1.57468 2.60633E-4
2310.78517      1.57474 2.60133E-4
2312.00587      1.5748  2.59687E-4
2313.22657      1.57486 2.59234E-4
2314.44727      1.57493 2.58734E-4
2315.66797      1.57499 2.58287E-4
2316.88867      1.57505 2.57834E-4
2318.10937      1.57511 2.57334E-4
2319.33007      1.57517 2.56887E-4
2320.55077      1.57523 2.56434E-4
2321.77147      1.57529 2.55935E-4
2322.99217      1.57536 2.55488E-4
2324.21287      1.57542 2.55035E-4
2325.43357      1.57548 2.54588E-4
2326.65427      1.57554 2.54135E-4
2327.87497      1.5756  2.53688E-4
2329.09567      1.57566 2.53235E-4
2330.31637      1.57572 2.52788E-4
2331.53707      1.57578 2.52336E-4
2332.75777      1.57584 2.51889E-4
2333.97847      1.5759  2.51436E-4
2335.19917      1.57596 2.50989E-4
2336.41987      1.57602 2.50536E-4
2337.64057      1.57608 2.50089E-4
2338.86127      1.57614 2.49636E-4
2340.08197      1.5762  2.49189E-4
2341.30267      1.57626 2.48737E-4
2342.52337      1.57632 2.48289E-4
2343.74407      1.57638 2.47889E-4
2344.96477      1.57644 2.47437E-4
2346.18547      1.5765  2.4699E-4
2347.40617      1.57655 2.46537E-4
2348.62687      1.57661 2.4609E-4
2349.84757      1.57667 2.4569E-4
2351.06826      1.57673 2.45238E-4
2352.28896      1.57679 2.4479E-4
2353.50966      1.57685 2.4439E-4
2354.73036      1.57691 2.43938E-4
2355.95106      1.57696 2.4349E-4
2357.17176      1.57702 2.43091E-4
2358.39246      1.57708 2.42638E-4
2359.61316      1.57714 2.42191E-4
2360.83386      1.5772  2.41791E-4
2362.05456      1.57725 2.41391E-4
2363.27526      1.57731 2.40939E-4
2364.49596      1.57737 2.40491E-4
2365.71666      1.57743 2.40091E-4
2366.93736      1.57748 2.39691E-4
2368.15806      1.57754 2.39291E-4
2369.37876      1.5776  2.38839E-4
2370.59946      1.57765 2.38392E-4
2371.82016      1.57771 2.37992E-4
2373.04086      1.57777 2.37592E-4
2374.26156      1.57782 2.37192E-4
2375.48226      1.57788 2.36792E-4
2376.70296      1.57794 2.36392E-4
2377.92366      1.57799 2.3594E-4
2379.14436      1.57805 2.35492E-4
2380.36506      1.57811 2.35092E-4
2381.58576      1.57816 2.34692E-4
2382.80646      1.57822 2.34293E-4
2384.02716      1.57827 2.33893E-4
2385.24786      1.57833 2.33493E-4
2386.46856      1.57839 2.33093E-4
2387.68926      1.57844 2.32693E-4
2388.90996      1.5785  2.32293E-4
2390.13066      1.57855 2.31893E-4
2391.35136      1.57861 2.31493E-4
2392.57206      1.57866 2.31093E-4
2393.79276      1.57872 2.30693E-4
2395.01346      1.57877 2.30294E-4
2396.23416      1.57883 2.29894E-4
2397.45486      1.57888 2.29494E-4
2398.67556      1.57894 2.29094E-4
2399.89626      1.57899 2.28694E-4
2401.11696      1.57905 2.28294E-4
2402.33766      1.5791  2.27894E-4
2403.55836      1.57916 2.27494E-4
2404.77906      1.57921 2.27094E-4
2405.99976      1.57926 2.26746E-4
2407.22046      1.57932 2.26395E-4
2408.44116      1.57937 2.25995E-4
2409.66186      1.57943 2.25595E-4
2410.88256      1.57948 2.25195E-4
2412.10326      1.57953 2.24795E-4
2413.32396      1.57959 2.24395E-4
2414.54466      1.57964 2.24046E-4
2415.76536      1.57969 2.23695E-4
2416.98606      1.57975 2.23295E-4
2418.20676      1.5798  2.22895E-4
2419.42746      1.57985 2.22496E-4
2420.64816      1.57991 2.22096E-4
2421.86886      1.57996 2.21747E-4
2423.08956      1.58001 2.21396E-4
2424.31026      1.58007 2.20996E-4
2425.53096      1.58012 2.20596E-4
2426.75166      1.58017 2.20247E-4
2427.97236      1.58022 2.19896E-4
2429.19306      1.58028 2.19496E-4
2430.41376      1.58033 2.19147E-4
2431.63446      1.58038 2.18797E-4
2432.85516      1.58043 2.18397E-4
2434.07586      1.58049 2.17997E-4
2435.29656      1.58054 2.17648E-4
2436.51726      1.58059 2.17297E-4
2437.73796      1.58064 2.16897E-4
2438.95866      1.58069 2.16548E-4
2440.17936      1.58074 2.16197E-4
2441.40006      1.5808  2.15797E-4
2442.62076      1.58085 2.15448E-4
2443.84146      1.5809  2.15098E-4
2445.06216      1.58095 2.14748E-4
2446.28286      1.581   2.14398E-4
2447.50356      1.58105 2.13998E-4
2448.72426      1.5811  2.13648E-4
2449.94496      1.58115 2.13298E-4
2451.16565      1.58121 2.12949E-4
2452.38635      1.58126 2.12598E-4
2453.60705      1.58131 2.12249E-4
2454.82775      1.58136 2.11898E-4
2456.04845      1.58141 2.11499E-4
2457.26915      1.58146 2.11149E-4
2458.48985      1.58151 2.10799E-4
2459.71055      1.58156 2.10449E-4
2460.93125      1.58161 2.10099E-4
2462.15195      1.58166 2.09749E-4
2463.37265      1.58171 2.09399E-4
2464.59335      1.58176 2.09049E-4
2465.81405      1.58181 2.08699E-4
2467.03475      1.58186 2.0835E-4
2468.25545      1.58191 2.0805E-4
2469.47615      1.58196 2.077E-4
2470.69685      1.58201 2.0735E-4
2471.91755      1.58206 2.07E-4
2473.13825      1.58211 2.0665E-4
2474.35895      1.58216 2.063E-4
2475.57965      1.5822  2.0595E-4
2476.80035      1.58225 2.0565E-4
2478.02105      1.5823  2.053E-4
2479.24175      1.58235 2.0495E-4
2480.46245      1.5824  2.04601E-4
2481.68315      1.58245 2.0425E-4
2482.90385      1.5825  2.03951E-4
2484.12455      1.58255 2.03601E-4
2485.34525      1.58259 2.03251E-4
2486.56595      1.58264 2.02951E-4
2487.78665      1.58269 2.02601E-4
2489.00735      1.58274 2.02251E-4
2490.22805      1.58279 2.01951E-4
2491.44875      1.58284 2.01601E-4
2492.66945      1.58288 2.01251E-4
2493.89015      1.58293 2.00951E-4
2495.11085      1.58298 2.00602E-4
2496.33155      1.58303 2.00251E-4
2497.55225      1.58308 1.99951E-4
2498.77295      1.58312 1.99651E-4
2499.99365      1.58317 1.99302E-4
2501.21435      1.58322 1.98952E-4
2502.43505      1.58327 1.98652E-4
2503.65575      1.58331 1.98352E-4
2504.87645      1.58336 1.98002E-4
2506.09715      1.58341 1.97652E-4
2507.31785      1.58345 1.97352E-4
2508.53855      1.5835  1.97052E-4
2509.75925      1.58355 1.96703E-4
2510.97995      1.5836  1.96352E-4
2512.20065      1.58364 1.96052E-4
2513.42135      1.58369 1.95752E-4
2514.64205      1.58374 1.95452E-4
2515.86275      1.58378 1.95153E-4
2517.08345      1.58383 1.94803E-4
2518.30415      1.58388 1.94453E-4
2519.52485      1.58392 1.94153E-4
2520.74555      1.58397 1.93853E-4
2521.96625      1.58401 1.93553E-4
2523.18695      1.58406 1.93253E-4
2524.40765      1.58411 1.92953E-4
2525.62835      1.58415 1.92604E-4
2526.84905      1.5842  1.92253E-4
2528.06975      1.58424 1.91953E-4
2529.29045      1.58429 1.91653E-4
2530.51115      1.58434 1.91353E-4
2531.73185      1.58438 1.91053E-4
2532.95255      1.58443 1.90754E-4
2534.17325      1.58447 1.90454E-4
2535.39395      1.58452 1.90154E-4
2536.61465      1.58456 1.89854E-4
2537.83535      1.58461 1.89554E-4
2539.05605      1.58465 1.89254E-4
2540.27675      1.5847  1.88954E-4
2541.49745      1.58474 1.88654E-4
2542.71815      1.58479 1.88354E-4
2543.93885      1.58483 1.88054E-4
2545.15955      1.58488 1.87754E-4
2546.38025      1.58492 1.87454E-4
2547.60095      1.58497 1.87154E-4
2548.82165      1.58501 1.86855E-4
2550.04235      1.58506 1.86555E-4
2551.26304      1.5851  1.86255E-4
2552.48374      1.58515 1.85955E-4
2553.70444      1.58519 1.85655E-4
2554.92514      1.58523 1.85355E-4
2556.14584      1.58528 1.85055E-4
2557.36654      1.58532 1.84755E-4
2558.58724      1.58537 1.84455E-4
2559.80794      1.58541 1.84155E-4
2561.02864      1.58545 1.83855E-4
2562.24934      1.5855  1.83555E-4
2563.47004      1.58554 1.83255E-4
2564.69074      1.58558 1.82955E-4
2565.91144      1.58563 1.82704E-4
2567.13214      1.58567 1.82456E-4
2568.35284      1.58572 1.82156E-4
2569.57354      1.58576 1.81856E-4
2570.79424      1.5858  1.81556E-4
2572.01494      1.58585 1.81256E-4
2573.23564      1.58589 1.80956E-4
2574.45634      1.58593 1.80656E-4
2575.67704      1.58597 1.80404E-4
2576.89774      1.58602 1.80156E-4
2578.11844      1.58606 1.79856E-4
2579.33914      1.5861  1.79556E-4
2580.55984      1.58615 1.79256E-4
2581.78054      1.58619 1.78957E-4
2583.00124      1.58623 1.78704E-4
2584.22194      1.58627 1.78457E-4
2585.44264      1.58632 1.78157E-4
2586.66334      1.58636 1.77857E-4
2587.88404      1.5864  1.77605E-4
2589.10474      1.58644 1.77357E-4
2590.32544      1.58649 1.77057E-4
2591.54614      1.58653 1.76757E-4
2592.76684      1.58657 1.76457E-4
2593.98754      1.58661 1.76205E-4
2595.20824      1.58665 1.75957E-4
2596.42894      1.5867  1.75657E-4
2597.64964      1.58674 1.75357E-4
2598.87034      1.58678 1.75105E-4
2600.09104      1.58682 1.74858E-4
2601.31174      1.58686 1.74558E-4
2602.53244      1.5869  1.74305E-4
2603.75314      1.58695 1.74058E-4
2604.97384      1.58699 1.73758E-4
2606.19454      1.58703 1.73458E-4
2607.41524      1.58707 1.73205E-4
2608.63594      1.58711 1.72958E-4
2609.85664      1.58715 1.72658E-4
2611.07734      1.58719 1.72406E-4
2612.29804      1.58724 1.72158E-4
2613.51874      1.58728 1.71858E-4
2614.73944      1.58732 1.71606E-4
2615.96014      1.58736 1.71359E-4
2617.18084      1.5874  1.71059E-4
2618.40154      1.58744 1.70806E-4
2619.62224      1.58748 1.70559E-4
2620.84294      1.58752 1.70306E-4
2622.06364      1.58756 1.70059E-4
2623.28434      1.5876  1.69759E-4
2624.50504      1.58764 1.69506E-4
2625.72574      1.58768 1.69259E-4
2626.94644      1.58772 1.68959E-4
2628.16714      1.58776 1.68706E-4
2629.38784      1.5878  1.68459E-4
2630.60854      1.58784 1.68206E-4
2631.82924      1.58788 1.6796E-4
2633.04994      1.58792 1.67706E-4
2634.27064      1.58796 1.6746E-4
2635.49134      1.588   1.6716E-4
2636.71204      1.58804 1.66907E-4
2637.93274      1.58808 1.6666E-4
2639.15344      1.58812 1.66407E-4
2640.37414      1.58816 1.6616E-4
2641.59484      1.5882  1.65907E-4
2642.81554      1.58824 1.6566E-4
2644.03624      1.58828 1.65407E-4
2645.25694      1.58832 1.6516E-4
2646.47764      1.58836 1.64907E-4
2647.69834      1.5884  1.64661E-4
2648.91904      1.58844 1.64407E-4
2650.13974      1.58848 1.64161E-4
2651.36043      1.58852 1.63907E-4
2652.58113      1.58856 1.63661E-4
2653.80183      1.58859 1.63407E-4
2655.02253      1.58863 1.63161E-4
2656.24323      1.58867 1.62907E-4
2657.46393      1.58871 1.62661E-4
2658.68463      1.58875 1.62407E-4
2659.90533      1.58879 1.62161E-4
2661.12603      1.58883 1.61908E-4
2662.34673      1.58887 1.61661E-4
2663.56743      1.5889  1.61408E-4
2664.78813      1.58894 1.61208E-4
2666.00883      1.58898 1.60962E-4
2667.22953      1.58902 1.60708E-4
2668.45023      1.58906 1.60462E-4
2669.67093      1.5891  1.60208E-4
2670.89163      1.58913 1.59962E-4
2672.11233      1.58917 1.59708E-4
2673.33303      1.58921 1.59508E-4
2674.55373      1.58925 1.59262E-4
2675.77443      1.58929 1.59008E-4
2676.99513      1.58932 1.58762E-4
2678.21583      1.58936 1.58508E-4
2679.43653      1.5894  1.58308E-4
2680.65723      1.58944 1.58063E-4
2681.87793      1.58947 1.57808E-4
2683.09863      1.58951 1.57608E-4
2684.31933      1.58955 1.57363E-4
2685.54003      1.58959 1.57109E-4
2686.76073      1.58962 1.56863E-4
2687.98143      1.58966 1.56609E-4
2689.20213      1.5897  1.56409E-4
2690.42283      1.58974 1.56163E-4
2691.64353      1.58977 1.55909E-4
2692.86423      1.58981 1.55709E-4
2694.08493      1.58985 1.55509E-4
2695.30563      1.58988 1.55263E-4
2696.52633      1.58992 1.55009E-4
2697.74703      1.58996 1.54809E-4
2698.96773      1.59    1.54564E-4
2700.18843      1.59003 1.54309E-4
2701.40913      1.59007 1.54109E-4
2702.62983      1.59011 1.53864E-4
2703.85053      1.59014 1.53609E-4
2705.07123      1.59018 1.53409E-4
2706.29193      1.59022 1.53209E-4
2707.51263      1.59025 1.52964E-4
2708.73333      1.59029 1.52709E-4
2709.95403      1.59032 1.5251E-4
2711.17473      1.59036 1.5231E-4
2712.39543      1.5904  1.52064E-4
2713.61613      1.59043 1.5181E-4
2714.83683      1.59047 1.5161E-4
2716.05753      1.59051 1.5141E-4
2717.27823      1.59054 1.51165E-4
2718.49893      1.59058 1.5091E-4
2719.71963      1.59061 1.5071E-4
2720.94033      1.59065 1.5051E-4
2722.16103      1.59069 1.50265E-4
2723.38173      1.59072 1.5001E-4
2724.60243      1.59076 1.4981E-4
2725.82313      1.59079 1.4961E-4
2727.04383      1.59083 1.4941E-4
2728.26453      1.59086 1.49165E-4
2729.48523      1.5909  1.4891E-4
2730.70593      1.59093 1.4871E-4
2731.92663      1.59097 1.4851E-4
2733.14733      1.59101 1.4831E-4
2734.36803      1.59104 1.48111E-4
2735.58873      1.59108 1.47866E-4
2736.80943      1.59111 1.47611E-4
2738.03013      1.59115 1.47411E-4
2739.25083      1.59118 1.47211E-4
2740.47153      1.59122 1.47011E-4
2741.69223      1.59125 1.46811E-4
2742.91293      1.59129 1.46566E-4
2744.13363      1.59132 1.46311E-4
2745.35433      1.59136 1.46111E-4
2746.57503      1.59139 1.45911E-4
2747.79573      1.59143 1.45711E-4
2749.01643      1.59146 1.45511E-4
2750.23713      1.59149 1.45311E-4
2751.45782      1.59153 1.45111E-4
2752.67852      1.59156 1.44867E-4
2753.89922      1.5916  1.44611E-4
2755.11992      1.59163 1.44411E-4
2756.34062      1.59167 1.44211E-4
2757.56132      1.5917  1.44011E-4
2758.78202      1.59174 1.43811E-4
2760.00272      1.59177 1.43612E-4
2761.22342      1.5918  1.43412E-4
2762.44412      1.59184 1.43212E-4
2763.66482      1.59187 1.43012E-4
2764.88552      1.59191 1.42812E-4
2766.10622      1.59194 1.42612E-4
2767.32692      1.59197 1.42412E-4
2768.54762      1.59201 1.42168E-4
2769.76832      1.59204 1.41912E-4
2770.98902      1.59208 1.41712E-4
2772.20972      1.59211 1.41512E-4
2773.43042      1.59214 1.41312E-4
2774.65112      1.59218 1.41112E-4
2775.87182      1.59221 1.40912E-4
2777.09252      1.59224 1.40712E-4
2778.31322      1.59228 1.40512E-4
2779.53392      1.59231 1.40312E-4
2780.75462      1.59234 1.40112E-4
2781.97532      1.59238 1.39912E-4
2783.19602      1.59241 1.39713E-4
2784.41672      1.59244 1.39513E-4
2785.63742      1.59248 1.39313E-4
2786.85812      1.59251 1.39113E-4
2788.07882      1.59254 1.38913E-4
2789.29952      1.59258 1.38713E-4
2790.52022      1.59261 1.38513E-4
2791.74092      1.59264 1.38313E-4
2792.96162      1.59268 1.38113E-4
2794.18232      1.59271 1.37913E-4
2795.40302      1.59274 1.37713E-4
2796.62372      1.59277 1.37513E-4
2797.84442      1.59281 1.37313E-4
2799.06512      1.59284 1.37113E-4
2800.28582      1.59287 1.36913E-4
2801.50652      1.5929  1.36757E-4
2802.72722      1.59294 1.36613E-4
2803.94792      1.59297 1.36413E-4
2805.16862      1.593   1.36213E-4
2806.38932      1.59303 1.36013E-4
2807.61002      1.59307 1.35813E-4
2808.83072      1.5931  1.35614E-4
2810.05142      1.59313 1.35414E-4
2811.27212      1.59316 1.35214E-4
2812.49282      1.5932  1.35014E-4
2813.71352      1.59323 1.34814E-4
2814.93422      1.59326 1.34614E-4
2816.15492      1.59329 1.34414E-4
2817.37562      1.59332 1.34257E-4
2818.59632      1.59336 1.34114E-4
2819.81702      1.59339 1.33914E-4
2821.03772      1.59342 1.33714E-4
2822.25842      1.59345 1.33514E-4
2823.47912      1.59348 1.33314E-4
2824.69982      1.59351 1.33114E-4
2825.92052      1.59355 1.32914E-4
2827.14122      1.59358 1.32714E-4
2828.36192      1.59361 1.32557E-4
2829.58262      1.59364 1.32414E-4
2830.80332      1.59367 1.32214E-4
2832.02402      1.5937  1.32014E-4
2833.24472      1.59374 1.31815E-4
2834.46542      1.59377 1.31615E-4
2835.68612      1.5938  1.31457E-4
2836.90682      1.59383 1.31315E-4
2838.12752      1.59386 1.31115E-4
2839.34822      1.59389 1.30915E-4
2840.56892      1.59392 1.30715E-4
2841.78962      1.59395 1.30515E-4
2843.01032      1.59399 1.30357E-4
2844.23102      1.59402 1.30215E-4
2845.45172      1.59405 1.30015E-4
2846.67242      1.59408 1.29815E-4
2847.89312      1.59411 1.29615E-4
2849.11382      1.59414 1.29415E-4
2850.33452      1.59417 1.29258E-4
2851.55521      1.5942  1.29115E-4
2852.77591      1.59423 1.28915E-4
2853.99661      1.59426 1.28715E-4
2855.21731      1.59429 1.28515E-4
2856.43801      1.59432 1.28358E-4
2857.65871      1.59435 1.28215E-4
2858.87941      1.59439 1.28016E-4
2860.10011      1.59442 1.27816E-4
2861.32081      1.59445 1.27658E-4
2862.54151      1.59448 1.27516E-4
2863.76221      1.59451 1.27316E-4
2864.98291      1.59454 1.27116E-4
2866.20361      1.59457 1.26958E-4
2867.42431      1.5946  1.26816E-4
2868.64501      1.59463 1.26616E-4
2869.86571      1.59466 1.26416E-4
2871.08641      1.59469 1.26258E-4
2872.30711      1.59472 1.26116E-4
2873.52781      1.59475 1.25916E-4
2874.74851      1.59478 1.25716E-4
2875.96921      1.59481 1.25558E-4
2877.18991      1.59484 1.25416E-4
2878.41061      1.59487 1.25216E-4
2879.63131      1.5949  1.25016E-4
2880.85201      1.59493 1.24858E-4
2882.07271      1.59496 1.24717E-4
2883.29341      1.59499 1.24517E-4
2884.51411      1.59502 1.24358E-4
2885.73481      1.59505 1.24217E-4
2886.95551      1.59507 1.24017E-4
2888.17621      1.5951  1.23817E-4
2889.39691      1.59513 1.23658E-4
2890.61761      1.59516 1.23517E-4
2891.83831      1.59519 1.23317E-4
2893.05901      1.59522 1.23158E-4
2894.27971      1.59525 1.23017E-4
2895.50041      1.59528 1.22817E-4
2896.72111      1.59531 1.22659E-4
2897.94181      1.59534 1.22517E-4
2899.16251      1.59537 1.22317E-4
2900.38321      1.5954  1.22159E-4
2901.60391      1.59543 1.22017E-4
2902.82461      1.59546 1.21817E-4
2904.04531      1.59548 1.21659E-4
2905.26601      1.59551 1.21517E-4
2906.48671      1.59554 1.21317E-4
2907.70741      1.59557 1.21159E-4
2908.92811      1.5956  1.21018E-4
2910.14881      1.59563 1.20818E-4
2911.36951      1.59566 1.20659E-4
2912.59021      1.59569 1.20518E-4
2913.81091      1.59571 1.20318E-4
2915.03161      1.59574 1.20159E-4
2916.25231      1.59577 1.20018E-4
2917.47301      1.5958  1.19859E-4
2918.69371      1.59583 1.19718E-4
2919.91441      1.59586 1.19518E-4
2921.13511      1.59589 1.19359E-4
2922.35581      1.59591 1.19218E-4
2923.57651      1.59594 1.19018E-4
2924.79721      1.59597 1.18859E-4
2926.01791      1.596   1.18718E-4
2927.23861      1.59603 1.18559E-4
2928.45931      1.59606 1.18418E-4
2929.68001      1.59608 1.18218E-4
2930.90071      1.59611 1.18059E-4
2932.12141      1.59614 1.17919E-4
2933.34211      1.59617 1.17759E-4
2934.56281      1.5962  1.17619E-4
2935.78351      1.59622 1.17419E-4
2937.00421      1.59625 1.17259E-4
2938.22491      1.59628 1.17119E-4
2939.44561      1.59631 1.16959E-4
2940.66631      1.59634 1.16819E-4
2941.88701      1.59636 1.16659E-4
2943.10771      1.59639 1.16519E-4
2944.32841      1.59642 1.16319E-4
2945.54911      1.59645 1.1616E-4
2946.76981      1.59647 1.16019E-4
2947.99051      1.5965  1.1586E-4
2949.21121      1.59653 1.15719E-4
2950.43191      1.59656 1.1556E-4
2951.6526       1.59658 1.15419E-4
2952.8733       1.59661 1.1526E-4
2954.094        1.59664 1.15119E-4
2955.3147       1.59667 1.1496E-4
2956.5354       1.59669 1.14819E-4
2957.7561       1.59672 1.1462E-4
2958.9768       1.59675 1.1446E-4
2960.1975       1.59678 1.1432E-4
2961.4182       1.5968  1.1416E-4
2962.6389       1.59683 1.1402E-4
2963.8596       1.59686 1.1386E-4
2965.0803       1.59688 1.1372E-4
2966.301        1.59691 1.1356E-4
2967.5217       1.59694 1.1342E-4
2968.7424       1.59696 1.1326E-4
2969.9631       1.59699 1.1312E-4
2971.1838       1.59702 1.1296E-4
2972.4045       1.59705 1.1282E-4
2973.6252       1.59707 1.1266E-4
2974.8459       1.5971  1.1252E-4
2976.0666       1.59713 1.1236E-4
2977.2873       1.59715 1.1222E-4
2978.508        1.59718 1.1206E-4
2979.7287       1.59721 1.1192E-4
2980.9494       1.59723 1.1176E-4
2982.1701       1.59726 1.11621E-4
2983.3908       1.59729 1.1146E-4
2984.6115       1.59731 1.11321E-4
2985.8322       1.59734 1.1116E-4
2987.0529       1.59736 1.1106E-4
2988.2736       1.59739 1.10921E-4
2989.4943       1.59742 1.1076E-4
2990.715        1.59744 1.10621E-4
2991.9357       1.59747 1.1046E-4
2993.1564       1.5975  1.10321E-4
2994.3771       1.59752 1.10161E-4
2995.5978       1.59755 1.10021E-4
2996.8185       1.59758 1.09861E-4
2998.0392       1.5976  1.09721E-4
2999.2599       1.59763 1.09561E-4
3000.4806       1.59765 1.09461E-4
3001.7013       1.59768 1.09321E-4
3002.922        1.59771 1.09161E-4
3004.1427       1.59773 1.09021E-4
3005.3634       1.59776 1.08861E-4
3006.5841       1.59778 1.08722E-4
3007.8048       1.59781 1.08561E-4
3009.0255       1.59783 1.08461E-4
3010.2462       1.59786 1.08322E-4
3011.4669       1.59789 1.08161E-4
3012.6876       1.59791 1.08022E-4
3013.9083       1.59794 1.07861E-4
3015.129        1.59796 1.07761E-4
3016.3497       1.59799 1.07622E-4
3017.5704       1.59801 1.07461E-4
3018.7911       1.59804 1.07322E-4
3020.0118       1.59807 1.07161E-4
3021.2325       1.59809 1.07061E-4
3022.4532       1.59812 1.06922E-4
3023.6739       1.59814 1.06761E-4
3024.8946       1.59817 1.06622E-4
3026.1153       1.59819 1.06461E-4
3027.336        1.59822 1.06361E-4
3028.5567       1.59824 1.06222E-4
3029.7774       1.59827 1.06061E-4
3030.9981       1.59829 1.05923E-4
3032.2188       1.59832 1.05761E-4
3033.4395       1.59834 1.05661E-4
3034.6602       1.59837 1.05523E-4
3035.8809       1.59839 1.05361E-4
3037.1016       1.59842 1.05261E-4
3038.3223       1.59844 1.05123E-4
3039.543        1.59847 1.04961E-4
3040.7637       1.59849 1.04861E-4
3041.9844       1.59852 1.04723E-4
3043.2051       1.59854 1.04562E-4
3044.4258       1.59857 1.04462E-4
3045.6465       1.59859 1.04323E-4
3046.8672       1.59862 1.04162E-4
3048.0879       1.59864 1.04023E-4
3049.3086       1.59867 1.03862E-4
3050.52929      1.59869 1.03762E-4
3051.74999      1.59872 1.03623E-4
3052.97069      1.59874 1.03462E-4
3054.19139      1.59877 1.03362E-4
3055.41209      1.59879 1.03223E-4
3056.63279      1.59882 1.03062E-4
3057.85349      1.59884 1.02962E-4
3059.07419      1.59886 1.02862E-4
3060.29489      1.59889 1.02724E-4
3061.51559      1.59891 1.02562E-4
3062.73629      1.59894 1.02462E-4
3063.95699      1.59896 1.02324E-4
3065.17769      1.59899 1.02162E-4
3066.39839      1.59901 1.02062E-4
3067.61909      1.59904 1.01924E-4
3068.83979      1.59906 1.01762E-4
3070.06049      1.59908 1.01662E-4
3071.28119      1.59911 1.01524E-4
3072.50189      1.59913 1.01362E-4
3073.72259      1.59916 1.01262E-4
3074.94329      1.59918 1.01162E-4
3076.16399      1.5992  1.01024E-4
3077.38469      1.59923 1.00862E-4
3078.60539      1.59925 1.00762E-4
3079.82609      1.59928 1.00624E-4
3081.04679      1.5993  1.00462E-4
3082.26749      1.59932 1.00362E-4
3083.48819      1.59935 1.00262E-4
3084.70889      1.59937 1.00125E-4
3085.92959      1.5994  9.99624E-5
3087.15029      1.59942 9.98624E-5
3088.37099      1.59944 9.97248E-5
3089.59169      1.59947 9.95624E-5
3090.81239      1.59949 9.94625E-5
3092.03309      1.59951 9.93625E-5
3093.25379      1.59954 9.9225E-5
3094.47449      1.59956 9.90625E-5
3095.69519      1.59958 9.89626E-5
3096.91589      1.59961 9.88626E-5
3098.13659      1.59963 9.87252E-5
3099.35729      1.59965 9.85626E-5
3100.57799      1.59968 9.84627E-5
3101.79869      1.5997  9.83627E-5
3103.01939      1.59973 9.82254E-5
3104.24009      1.59975 9.80627E-5
3105.46079      1.59977 9.79628E-5
3106.68149      1.5998  9.78628E-5
3107.90219      1.59982 9.77628E-5
3109.12289      1.59984 9.76257E-5
3110.34359      1.59986 9.74629E-5
3111.56429      1.59989 9.73629E-5
3112.78499      1.59991 9.72629E-5
3114.00569      1.59993 9.71259E-5
3115.22639      1.59996 9.6963E-5
3116.44709      1.59998 9.6863E-5
3117.66779      1.6     9.6763E-5
3118.88849      1.60003 9.6663E-5
3120.10919      1.60005 9.65261E-5
3121.32989      1.60007 9.63631E-5
3122.55059      1.6001  9.62631E-5
3123.77129      1.60012 9.61631E-5
3124.99199      1.60014 9.60263E-5
3126.21269      1.60016 9.58632E-5
3127.43339      1.60019 9.57632E-5
3128.65409      1.60021 9.56632E-5
3129.87479      1.60023 9.55633E-5
3131.09549      1.60025 9.54266E-5
3132.31619      1.60028 9.52633E-5
3133.53689      1.6003  9.51633E-5
3134.75759      1.60032 9.50634E-5
3135.97829      1.60035 9.49634E-5
3137.19899      1.60037 9.48634E-5
3138.41969      1.60039 9.47269E-5
3139.64039      1.60041 9.45634E-5
3140.86109      1.60044 9.44635E-5
3142.08179      1.60046 9.43635E-5
3143.30249      1.60048 9.42635E-5
3144.52319      1.6005  9.41271E-5
3145.74389      1.60052 9.39636E-5
3146.96459      1.60055 9.38636E-5
3148.18529      1.60057 9.37636E-5
3149.40599      1.60059 9.36636E-5
3150.62668      1.60061 9.35637E-5
3151.84738      1.60064 9.34637E-5
3153.06808      1.60066 9.33275E-5
3154.28878      1.60068 9.31637E-5
3155.50948      1.6007  9.30638E-5
3156.73018      1.60072 9.29638E-5
3157.95088      1.60075 9.28638E-5
3159.17158      1.60077 9.27639E-5
3160.39228      1.60079 9.26277E-5
3161.61298      1.60081 9.24639E-5
3162.83368      1.60084 9.23639E-5
3164.05438      1.60086 9.2264E-5
3165.27508      1.60088 9.2164E-5
3166.49578      1.6009  9.2064E-5
3167.71648      1.60092 9.1964E-5
3168.93718      1.60094 9.18281E-5
3170.15788      1.60097 9.16641E-5
3171.37858      1.60099 9.15641E-5
3172.59928      1.60101 9.14641E-5
3173.81998      1.60103 9.13641E-5
3175.04068      1.60105 9.12642E-5
3176.26138      1.60108 9.11642E-5
3177.48208      1.6011  9.10642E-5
3178.70278      1.60112 9.09285E-5
3179.92348      1.60114 9.07643E-5
3181.14418      1.60116 9.06643E-5
3182.36488      1.60118 9.05643E-5
3183.58558      1.6012  9.04643E-5
3184.80628      1.60123 9.03644E-5
3186.02698      1.60125 9.02644E-5
3187.24768      1.60127 9.01644E-5
3188.46838      1.60129 9.00644E-5
3189.68908      1.60131 8.99645E-5
3190.90978      1.60133 8.9829E-5
3192.13048      1.60135 8.96645E-5
3193.35118      1.60138 8.95645E-5
3194.57188      1.6014  8.94646E-5
3195.79258      1.60142 8.93646E-5
3197.01328      1.60144 8.92646E-5
3198.23398      1.60146 8.91646E-5
3199.45468      1.60148 8.90647E-5
3200.67538      1.6015  8.89647E-5
3201.89608      1.60152 8.88647E-5
3203.11678      1.60155 8.87647E-5
3204.33748      1.60157 8.86295E-5
3205.55818      1.60159 8.84648E-5
3206.77888      1.60161 8.83648E-5
3207.99958      1.60163 8.82648E-5
3209.22028      1.60165 8.81649E-5
3210.44098      1.60167 8.80649E-5
3211.66168      1.60169 8.79649E-5
3212.88238      1.60171 8.78649E-5
3214.10308      1.60173 8.7765E-5
3215.32378      1.60176 8.7665E-5
3216.54448      1.60178 8.7565E-5
3217.76518      1.6018  8.7465E-5
3218.98588      1.60182 8.73651E-5
3220.20658      1.60184 8.72651E-5
3221.42728      1.60186 8.71651E-5
3222.64798      1.60188 8.70302E-5
3223.86868      1.6019  8.68652E-5
3225.08938      1.60192 8.67652E-5
3226.31008      1.60194 8.66652E-5
3227.53078      1.60196 8.65652E-5
3228.75148      1.60198 8.64653E-5
3229.97218      1.602   8.63653E-5
3231.19288      1.60202 8.62653E-5
3232.41358      1.60204 8.61653E-5
3233.63428      1.60206 8.60653E-5
3234.85498      1.60209 8.59654E-5
3236.07568      1.60211 8.58654E-5
3237.29638      1.60213 8.57654E-5
3238.51708      1.60215 8.56654E-5
3239.73778      1.60217 8.55655E-5
3240.95848      1.60219 8.54655E-5
3242.17918      1.60221 8.53655E-5
3243.39988      1.60223 8.52655E-5
3244.62058      1.60225 8.51656E-5
3245.84128      1.60227 8.50656E-5
3247.06198      1.60229 8.49656E-5
3248.28268      1.60231 8.48657E-5
3249.50338      1.60233 8.47657E-5
3250.72407      1.60235 8.46657E-5
3251.94477      1.60237 8.45657E-5
3253.16547      1.60239 8.44658E-5
3254.38617      1.60241 8.43658E-5
3255.60687      1.60243 8.42658E-5
3256.82757      1.60245 8.41658E-5
3258.04827      1.60247 8.40659E-5
3259.26897      1.60249 8.39659E-5
3260.48967      1.60251 8.38659E-5
3261.71037      1.60253 8.37659E-5
3262.93107      1.60255 8.3666E-5
3264.15177      1.60257 8.3566E-5
3265.37247      1.60259 8.3466E-5
3266.59317      1.60261 8.3366E-5
3267.81387      1.60263 8.3266E-5
3269.03457      1.60265 8.31661E-5
3270.25527      1.60267 8.30661E-5
3271.47597      1.60269 8.29661E-5
3272.69667      1.60271 8.28661E-5
3273.91737      1.60273 8.27662E-5
3275.13807      1.60275 8.26662E-5
3276.35877      1.60277 8.25662E-5
3277.57947      1.60279 8.24662E-5
3278.80017      1.60281 8.23663E-5
3280.02087      1.60282 8.22663E-5
3281.24157      1.60284 8.21663E-5
3282.46227      1.60286 8.20663E-5
3283.68297      1.60288 8.19664E-5
3284.90367      1.6029  8.18664E-5
3286.12437      1.60292 8.17664E-5
3287.34507      1.60294 8.16664E-5
3288.56577      1.60296 8.15665E-5
3289.78647      1.60298 8.14665E-5
3291.00717      1.603   8.13665E-5
3292.22787      1.60302 8.12665E-5
3293.44857      1.60304 8.11666E-5
3294.66927      1.60306 8.10666E-5
3295.88997      1.60308 8.09666E-5
3297.11067      1.6031  8.08666E-5
3298.33137      1.60312 8.07667E-5
3299.55207      1.60313 8.06667E-5
3300.77277      1.60315 8.06E-5
3301.99347      1.60317 8.05667E-5
3303.21417      1.60319 8.04668E-5
3304.43487      1.60321 8.03668E-5
3305.65557      1.60323 8.02668E-5
3306.87627      1.60325 8.01668E-5
3308.09697      1.60327 8.00669E-5
3309.31767      1.60329 7.99669E-5
3310.53837      1.60331 7.98669E-5
3311.75907      1.60333 7.97669E-5
3312.97977      1.60334 7.9667E-5
3314.20047      1.60336 7.9567E-5
3315.42117      1.60338 7.9467E-5
3316.64187      1.6034  7.9367E-5
3317.86257      1.60342 7.92671E-5
3319.08327      1.60344 7.91671E-5
3320.30397      1.60346 7.91E-5
3321.52467      1.60348 7.90671E-5
3322.74537      1.60349 7.89672E-5
3323.96607      1.60351 7.88672E-5
3325.18677      1.60353 7.87672E-5
3326.40747      1.60355 7.86672E-5
3327.62817      1.60357 7.85672E-5
3328.84887      1.60359 7.84673E-5
3330.06957      1.60361 7.83673E-5
3331.29027      1.60363 7.82673E-5
3332.51097      1.60364 7.81673E-5
3333.73167      1.60366 7.80674E-5
3334.95237      1.60368 7.8E-5
3336.17307      1.6037  7.79674E-5
3337.39377      1.60372 7.78674E-5
3338.61447      1.60374 7.77675E-5
3339.83517      1.60376 7.76675E-5
3341.05587      1.60377 7.75675E-5
3342.27657      1.60379 7.74676E-5
3343.49727      1.60381 7.73676E-5
3344.71797      1.60383 7.72676E-5
3345.93867      1.60385 7.71676E-5
3347.15937      1.60387 7.71E-5
3348.38007      1.60388 7.70677E-5
3349.60077      1.6039  7.69677E-5
3350.82146      1.60392 7.68677E-5
3352.04216      1.60394 7.67678E-5
3353.26286      1.60396 7.66678E-5
3354.48356      1.60398 7.65678E-5
3355.70426      1.60399 7.64678E-5
3356.92496      1.60401 7.63679E-5
3358.14566      1.60403 7.63E-5
3359.36636      1.60405 7.62679E-5
3360.58706      1.60407 7.61679E-5
3361.80776      1.60408 7.60679E-5
3363.02846      1.6041  7.5968E-5
3364.24916      1.60412 7.5868E-5
3365.46986      1.60414 7.5768E-5
3366.69056      1.60416 7.5668E-5
3367.91126      1.60417 7.56E-5
3369.13196      1.60419 7.55681E-5
3370.35266      1.60421 7.54681E-5
3371.57336      1.60423 7.53681E-5
3372.79406      1.60425 7.52682E-5
3374.01476      1.60426 7.51682E-5
3375.23546      1.60428 7.50682E-5
3376.45616      1.6043  7.49682E-5
3377.67686      1.60432 7.49E-5
3378.89756      1.60433 7.48683E-5
3380.11826      1.60435 7.47683E-5
3381.33896      1.60437 7.46683E-5
3382.55966      1.60439 7.45684E-5
3383.78036      1.60441 7.44684E-5
3385.00106      1.60442 7.44E-5
3386.22176      1.60444 7.43684E-5
3387.44246      1.60446 7.42685E-5
3388.66316      1.60448 7.41685E-5
3389.88386      1.60449 7.40685E-5
3391.10456      1.60451 7.39685E-5
3392.32526      1.60453 7.38686E-5
3393.54596      1.60455 7.38E-5
3394.76666      1.60456 7.37686E-5
3395.98736      1.60458 7.36686E-5
3397.20806      1.6046  7.35687E-5
3398.42876      1.60462 7.34687E-5
3399.64946      1.60463 7.33687E-5
3400.87016      1.60465 7.33E-5
3402.09086      1.60467 7.32688E-5
3403.31156      1.60469 7.31688E-5
3404.53226      1.6047  7.30688E-5
3405.75296      1.60472 7.29688E-5
3406.97366      1.60474 7.28689E-5
3408.19436      1.60476 7.28E-5
3409.41506      1.60477 7.27689E-5
3410.63576      1.60479 7.26689E-5
3411.85646      1.60481 7.2569E-5
3413.07716      1.60483 7.2469E-5
3414.29786      1.60484 7.2369E-5
3415.51856      1.60486 7.23E-5
3416.73926      1.60488 7.22691E-5
3417.95996      1.60489 7.21691E-5
3419.18066      1.60491 7.20691E-5
3420.40136      1.60493 7.19691E-5
3421.62206      1.60495 7.19E-5
3422.84276      1.60496 7.18692E-5
3424.06346      1.60498 7.17692E-5
3425.28416      1.605   7.16692E-5
3426.50486      1.60501 7.15692E-5
3427.72556      1.60503 7.15E-5
3428.94626      1.60505 7.14693E-5
3430.16696      1.60506 7.13693E-5
3431.38766      1.60508 7.12693E-5
3432.60836      1.6051  7.11694E-5
3433.82906      1.60511 7.10694E-5
3435.04976      1.60513 7.1E-5
3436.27046      1.60515 7.09695E-5
3437.49116      1.60517 7.08695E-5
3438.71186      1.60518 7.07695E-5
3439.93256      1.6052  7.07E-5
3441.15326      1.60522 7.06696E-5
3442.37396      1.60523 7.05696E-5
3443.59466      1.60525 7.04696E-5
3444.81536      1.60527 7.03696E-5
3446.03606      1.60528 7.03E-5
3447.25676      1.6053  7.02697E-5
3448.47746      1.60532 7.01697E-5
3449.69816      1.60533 7.00697E-5
3450.91885      1.60535 6.99698E-5
3452.13955      1.60537 6.99E-5
3453.36025      1.60538 6.98698E-5
3454.58095      1.6054  6.97698E-5
3455.80165      1.60542 6.96698E-5
3457.02235      1.60543 6.96E-5
3458.24305      1.60545 6.95699E-5
3459.46375      1.60547 6.94699E-5
3460.68445      1.60548 6.93699E-5
3461.90515      1.6055  6.927E-5
3463.12585      1.60551 6.92E-5
3464.34655      1.60553 6.917E-5
3465.56725      1.60555 6.907E-5
3466.78795      1.60556 6.89701E-5
3468.00865      1.60558 6.89E-5
3469.22935      1.6056  6.88701E-5
3470.45005      1.60561 6.87701E-5
3471.67075      1.60563 6.86702E-5
3472.89145      1.60565 6.85702E-5
3474.11215      1.60566 6.85E-5
3475.33285      1.60568 6.84702E-5
3476.55355      1.60569 6.83703E-5
3477.77425      1.60571 6.82703E-5
3478.99495      1.60573 6.82E-5
3480.21565      1.60574 6.81703E-5
3481.43635      1.60576 6.80704E-5
3482.65705      1.60578 6.79704E-5
3483.87775      1.60579 6.79E-5
3485.09845      1.60581 6.78704E-5
3486.31915      1.60582 6.77705E-5
3487.53985      1.60584 6.76705E-5
3488.76055      1.60586 6.76E-5
3489.98125      1.60587 6.75705E-5
3491.20195      1.60589 6.74706E-5
3492.42265      1.6059  6.73706E-5
3493.64335      1.60592 6.73E-5
3494.86405      1.60594 6.72706E-5
3496.08475      1.60595 6.71707E-5
3497.30545      1.60597 6.70707E-5
3498.52615      1.60598 6.7E-5
3499.74685      1.606   6.69707E-5
3500.96755      1.60602 6.68708E-5
3502.18825      1.60603 6.68E-5
3503.40895      1.60605 6.67708E-5
3504.62965      1.60606 6.66708E-5
3505.85035      1.60608 6.65709E-5
3507.07105      1.6061  6.65E-5
3508.29175      1.60611 6.64709E-5
3509.51245      1.60613 6.63709E-5
3510.73315      1.60614 6.6271E-5
3511.95385      1.60616 6.62E-5
3513.17455      1.60617 6.6171E-5
3514.39525      1.60619 6.6071E-5
3515.61595      1.60621 6.5971E-5
3516.83665      1.60622 6.59E-5
3518.05735      1.60624 6.58711E-5
3519.27805      1.60625 6.57711E-5
3520.49875      1.60627 6.57E-5
3521.71945      1.60628 6.56712E-5
3522.94015      1.6063  6.55712E-5
3524.16085      1.60631 6.54712E-5
3525.38155      1.60633 6.54E-5
3526.60225      1.60635 6.53713E-5
3527.82295      1.60636 6.52713E-5
3529.04365      1.60638 6.52E-5
3530.26435      1.60639 6.51714E-5
3531.48505      1.60641 6.50714E-5
3532.70575      1.60642 6.49714E-5
3533.92645      1.60644 6.49E-5
3535.14715      1.60645 6.48715E-5
3536.36785      1.60647 6.47715E-5
3537.58855      1.60648 6.47E-5
3538.80925      1.6065  6.46715E-5
3540.02995      1.60652 6.45716E-5
3541.25065      1.60653 6.45E-5
3542.47135      1.60655 6.44716E-5
3543.69205      1.60656 6.43716E-5
3544.91275      1.60658 6.42717E-5
3546.13345      1.60659 6.42E-5
3547.35415      1.60661 6.41717E-5
3548.57485      1.60662 6.40717E-5
3549.79555      1.60664 6.4E-5
3551.01624      1.60665 6.39718E-5
3552.23694      1.60667 6.38718E-5
3553.45764      1.60668 6.38E-5
3554.67834      1.6067  6.37718E-5
3555.89904      1.60671 6.36719E-5
3557.11974      1.60673 6.35719E-5
3558.34044      1.60674 6.35E-5
3559.56114      1.60676 6.34719E-5
3560.78184      1.60677 6.3372E-5
3562.00254      1.60679 6.33E-5
3563.22324      1.6068  6.3272E-5
3564.44394      1.60682 6.3172E-5
3565.66464      1.60683 6.31E-5
3566.88534      1.60685 6.30721E-5
3568.10604      1.60686 6.29721E-5
3569.32674      1.60688 6.29E-5
3570.54744      1.60689 6.28722E-5
3571.76814      1.60691 6.27722E-5
3572.98884      1.60692 6.27E-5
3574.20954      1.60694 6.26722E-5
3575.43024      1.60695 6.25723E-5
3576.65094      1.60697 6.25E-5
3577.87164      1.60698 6.24723E-5
3579.09234      1.607   6.23723E-5
3580.31304      1.60701 6.23E-5
3581.53374      1.60703 6.22724E-5
3582.75444      1.60704 6.21724E-5
3583.97514      1.60706 6.21E-5
3585.19584      1.60707 6.20725E-5
3586.41654      1.60709 6.19725E-5
3587.63724      1.6071  6.19E-5
3588.85794      1.60712 6.18725E-5
3590.07864      1.60713 6.17726E-5
3591.29934      1.60715 6.17E-5
3592.52004      1.60716 6.16726E-5
3593.74074      1.60717 6.15726E-5
3594.96144      1.60719 6.15E-5
3596.18214      1.6072  6.14727E-5
3597.40284      1.60722 6.13727E-5
3598.62354      1.60723 6.13E-5
3599.84424      1.60725 6.12728E-5
3601.06494      1.60726 6.11728E-5
3602.28564      1.60728 6.11E-5
3603.50634      1.60729 6.10728E-5
3604.72704      1.60731 6.09729E-5
3605.94774      1.60732 6.09E-5
3607.16844      1.60733 6.08729E-5
3608.38914      1.60735 6.07729E-5
3609.60984      1.60736 6.07E-5
3610.83054      1.60738 6.0673E-5
3612.05124      1.60739 6.06E-5
3613.27194      1.60741 6.0573E-5
3614.49264      1.60742 6.0473E-5
3615.71334      1.60744 6.04E-5
3616.93404      1.60745 6.03731E-5
3618.15474      1.60746 6.02731E-5
3619.37544      1.60748 6.02E-5
3620.59614      1.60749 6.01732E-5
3621.81684      1.60751 6.00732E-5
3623.03754      1.60752 6E-5
3624.25824      1.60754 5.99733E-5
3625.47894      1.60755 5.98733E-5
3626.69964      1.60756 5.98E-5
3627.92034      1.60758 5.97733E-5
3629.14104      1.60759 5.97E-5
3630.36174      1.60761 5.96734E-5
3631.58244      1.60762 5.95734E-5
3632.80314      1.60763 5.95E-5
3634.02384      1.60765 5.94735E-5
3635.24454      1.60766 5.93735E-5
3636.46524      1.60768 5.93E-5
3637.68594      1.60769 5.92735E-5
3638.90664      1.6077  5.92E-5
3640.12734      1.60772 5.91736E-5
3641.34804      1.60773 5.90736E-5
3642.56874      1.60775 5.9E-5
3643.78944      1.60776 5.89736E-5
3645.01014      1.60778 5.88737E-5
3646.23084      1.60779 5.88E-5
3647.45154      1.6078  5.87737E-5
3648.67224      1.60782 5.87E-5
3649.89294      1.60783 5.86738E-5
3651.11363      1.60784 5.85738E-5
3652.33433      1.60786 5.85E-5
3653.55503      1.60787 5.84738E-5
3654.77573      1.60789 5.84E-5
3655.99643      1.6079  5.83739E-5
3657.21713      1.60791 5.82739E-5
3658.43783      1.60793 5.82E-5
3659.65853      1.60794 5.8174E-5
3660.87923      1.60796 5.8074E-5
3662.09993      1.60797 5.8E-5
3663.32063      1.60798 5.7974E-5
3664.54133      1.608   5.79E-5
3665.76203      1.60801 5.78741E-5
3666.98273      1.60802 5.77741E-5
3668.20343      1.60804 5.77E-5
3669.42413      1.60805 5.76742E-5
3670.64483      1.60807 5.76E-5
3671.86553      1.60808 5.75742E-5
3673.08623      1.60809 5.74742E-5
3674.30693      1.60811 5.74E-5
3675.52763      1.60812 5.73743E-5
3676.74833      1.60813 5.73E-5
3677.96903      1.60815 5.72743E-5
3679.18973      1.60816 5.71744E-5
3680.41043      1.60817 5.71E-5
3681.63113      1.60819 5.70744E-5
3682.85183      1.6082  5.7E-5
3684.07253      1.60822 5.69745E-5
3685.29323      1.60823 5.68745E-5
3686.51393      1.60824 5.68E-5
3687.73463      1.60826 5.67745E-5
3688.95533      1.60827 5.67E-5
3690.17603      1.60828 5.66746E-5
3691.39673      1.6083  5.65746E-5
3692.61743      1.60831 5.65E-5
3693.83813      1.60832 5.64747E-5
3695.05883      1.60834 5.64E-5
3696.27953      1.60835 5.63747E-5
3697.50023      1.60836 5.63E-5
3698.72093      1.60838 5.62748E-5
3699.94163      1.60839 5.61748E-5
3701.16233      1.6084  5.61E-5
3702.38303      1.60842 5.60748E-5
3703.60373      1.60843 5.6E-5
3704.82443      1.60844 5.59749E-5
3706.04513      1.60846 5.58749E-5
3707.26583      1.60847 5.58E-5
3708.48653      1.60848 5.57749E-5
3709.70723      1.6085  5.57E-5
3710.92793      1.60851 5.5675E-5
3712.14863      1.60852 5.56E-5
3713.36933      1.60854 5.5575E-5
3714.59003      1.60855 5.54751E-5
3715.81073      1.60856 5.54E-5
3717.03143      1.60858 5.53751E-5
3718.25213      1.60859 5.53E-5
3719.47283      1.6086  5.52752E-5
3720.69353      1.60861 5.52E-5
3721.91423      1.60863 5.51752E-5
3723.13493      1.60864 5.50753E-5
3724.35563      1.60865 5.5E-5
3725.57633      1.60867 5.49753E-5
3726.79703      1.60868 5.49E-5
3728.01773      1.60869 5.48754E-5
3729.23843      1.60871 5.48E-5
3730.45913      1.60872 5.47754E-5
3731.67983      1.60873 5.47E-5
3732.90053      1.60874 5.46755E-5
3734.12123      1.60876 5.45755E-5
3735.34193      1.60877 5.45E-5
3736.56263      1.60878 5.44755E-5
3737.78333      1.6088  5.44E-5
3739.00403      1.60881 5.43756E-5
3740.22473      1.60882 5.43E-5
3741.44543      1.60884 5.42756E-5
3742.66613      1.60885 5.42E-5
3743.88683      1.60886 5.41757E-5
3745.10753      1.60887 5.40757E-5
3746.32823      1.60889 5.4E-5
3747.54893      1.6089  5.39757E-5
3748.76963      1.60891 5.39E-5
3749.99033      1.60893 5.38758E-5
3751.21102      1.60894 5.38E-5
3752.43172      1.60895 5.37758E-5
3753.65242      1.60896 5.37E-5
3754.87312      1.60898 5.36759E-5
3756.09382      1.60899 5.35759E-5
3757.31452      1.609   5.35E-5
3758.53522      1.60901 5.3476E-5
3759.75592      1.60903 5.34E-5
3760.97662      1.60904 5.3376E-5
3762.19732      1.60905 5.33E-5
3763.41802      1.60907 5.32761E-5
3764.63872      1.60908 5.32E-5
3765.85942      1.60909 5.31761E-5
3767.08012      1.6091  5.31E-5
3768.30082      1.60912 5.30762E-5
3769.52152      1.60913 5.29762E-5
3770.74222      1.60914 5.29E-5
3771.96292      1.60915 5.28762E-5
3773.18362      1.60917 5.28E-5
3774.40432      1.60918 5.27763E-5
3775.62502      1.60919 5.27E-5
3776.84572      1.6092  5.26763E-5
3778.06642      1.60922 5.26E-5
3779.28712      1.60923 5.25764E-5
3780.50782      1.60924 5.25E-5
3781.72852      1.60925 5.24764E-5
3782.94922      1.60927 5.24E-5
3784.16992      1.60928 5.23765E-5
3785.39062      1.60929 5.23E-5
3786.61132      1.6093  5.22765E-5
3787.83202      1.60932 5.21766E-5
3789.05272      1.60933 5.21E-5
3790.27342      1.60934 5.20766E-5
3791.49412      1.60935 5.2E-5
3792.71482      1.60936 5.19767E-5
3793.93552      1.60938 5.19E-5
3795.15622      1.60939 5.18767E-5
3796.37692      1.6094  5.18E-5
3797.59762      1.60941 5.17768E-5
3798.81832      1.60943 5.17E-5
3800.03902      1.60944 5.16768E-5
3801.25972      1.60945 5.16E-5
3802.48042      1.60946 5.15768E-5
3803.70112      1.60948 5.15E-5
3804.92182      1.60949 5.14769E-5
3806.14252      1.6095  5.14E-5
3807.36322      1.60951 5.13769E-5
3808.58392      1.60952 5.13E-5
3809.80462      1.60954 5.1277E-5
3811.02532      1.60955 5.12E-5
3812.24602      1.60956 5.11771E-5
3813.46672      1.60957 5.11E-5
3814.68742      1.60958 5.10771E-5
3815.90812      1.6096  5.1E-5
3817.12882      1.60961 5.09772E-5
3818.34952      1.60962 5.09E-5
3819.57022      1.60963 5.08772E-5
3820.79092      1.60965 5.08E-5
3822.01162      1.60966 5.07773E-5
3823.23232      1.60967 5.07E-5
3824.45302      1.60968 5.06773E-5
3825.67372      1.60969 5.05773E-5
3826.89442      1.60971 5.05E-5
3828.11512      1.60972 5.04774E-5
3829.33582      1.60973 5.04E-5
3830.55652      1.60974 5.03774E-5
3831.77722      1.60975 5.03E-5
3832.99792      1.60977 5.02775E-5
3834.21862      1.60978 5.02E-5
3835.43932      1.60979 5.01775E-5
3836.66002      1.6098  5.01E-5
3837.88072      1.60981 5.00776E-5
3839.10142      1.60982 5E-5
3840.32212      1.60984 4.99776E-5
3841.54282      1.60985 4.99E-5
3842.76352      1.60986 4.98777E-5
3843.98422      1.60987 4.98E-5
3845.20492      1.60988 4.97777E-5
3846.42562      1.6099  4.97E-5
3847.64632      1.60991 4.97E-5
3848.86702      1.60992 4.96778E-5
3850.08772      1.60993 4.96E-5
3851.30841      1.60994 4.95778E-5
3852.52911      1.60995 4.95E-5
3853.74981      1.60997 4.94779E-5
3854.97051      1.60998 4.94E-5
3856.19121      1.60999 4.93779E-5
3857.41191      1.61    4.93E-5
3858.63261      1.61001 4.9278E-5
3859.85331      1.61002 4.92E-5
3861.07401      1.61004 4.9178E-5
3862.29471      1.61005 4.91E-5
3863.51541      1.61006 4.90781E-5
3864.73611      1.61007 4.9E-5
3865.95681      1.61008 4.89781E-5
3867.17751      1.61009 4.89E-5
3868.39821      1.61011 4.88782E-5
3869.61891      1.61012 4.88E-5
3870.83961      1.61013 4.87782E-5
3872.06031      1.61014 4.87E-5
3873.28101      1.61015 4.86783E-5
3874.50171      1.61016 4.86E-5
3875.72241      1.61018 4.85783E-5
3876.94311      1.61019 4.85E-5
3878.16381      1.6102  4.84784E-5
3879.38451      1.61021 4.84E-5
3880.60521      1.61022 4.83784E-5
3881.82591      1.61023 4.83E-5
3883.04661      1.61024 4.82785E-5
3884.26731      1.61026 4.82E-5
3885.48801      1.61027 4.82E-5
3886.70871      1.61028 4.81786E-5
3887.92941      1.61029 4.81E-5
3889.15011      1.6103  4.80786E-5
3890.37081      1.61031 4.8E-5
3891.59151      1.61032 4.79787E-5
3892.81221      1.61034 4.79E-5
3894.03291      1.61035 4.78787E-5
3895.25361      1.61036 4.78E-5
3896.47431      1.61037 4.77787E-5
3897.69501      1.61038 4.77E-5
3898.91571      1.61039 4.76788E-5
3900.13641      1.6104  4.76E-5
3901.35711      1.61042 4.75788E-5
3902.57781      1.61043 4.75E-5
3903.79851      1.61044 4.74789E-5
3905.01921      1.61045 4.74E-5
3906.23991      1.61046 4.74E-5
3907.46061      1.61047 4.7379E-5
3908.68131      1.61048 4.73E-5
3909.90201      1.61049 4.7279E-5
3911.12271      1.61051 4.72E-5
3912.34341      1.61052 4.71791E-5
3913.56411      1.61053 4.71E-5
3914.78481      1.61054 4.70791E-5
3916.00551      1.61055 4.7E-5
3917.22621      1.61056 4.69792E-5
3918.44691      1.61057 4.69E-5
3919.66761      1.61058 4.69E-5
3920.88831      1.61059 4.68793E-5
3922.10901      1.61061 4.68E-5
3923.32971      1.61062 4.67793E-5
3924.55041      1.61063 4.67E-5
3925.77111      1.61064 4.66794E-5
3926.99181      1.61065 4.66E-5
3928.21251      1.61066 4.65794E-5
3929.43321      1.61067 4.65E-5
3930.65391      1.61068 4.64794E-5
3931.87461      1.61069 4.64E-5
3933.09531      1.61071 4.64E-5
3934.31601      1.61072 4.63795E-5
3935.53671      1.61073 4.63E-5
3936.75741      1.61074 4.62796E-5
3937.97811      1.61075 4.62E-5
3939.19881      1.61076 4.61796E-5
3940.41951      1.61077 4.61E-5
3941.64021      1.61078 4.60797E-5
3942.86091      1.61079 4.6E-5
3944.08161      1.6108  4.6E-5
3945.30231      1.61081 4.59797E-5
3946.52301      1.61083 4.59E-5
3947.74371      1.61084 4.58798E-5
3948.96441      1.61085 4.58E-5
3950.18511      1.61086 4.57798E-5
3951.4058       1.61087 4.57E-5
3952.6265       1.61088 4.56799E-5
3953.8472       1.61089 4.56E-5
3955.0679       1.6109  4.56E-5
3956.2886       1.61091 4.558E-5
3957.5093       1.61092 4.55E-5
3958.73 1.61093 4.548E-5
3959.9507       1.61094 4.54E-5
3961.1714       1.61096 4.53801E-5
3962.3921       1.61097 4.53E-5
3963.6128       1.61098 4.52801E-5
3964.8335       1.61099 4.52E-5
3966.0542       1.611   4.52E-5
3967.2749       1.61101 4.51802E-5
3968.4956       1.61102 4.51E-5
3969.7163       1.61103 4.50802E-5
3970.937        1.61104 4.5E-5
3972.1577       1.61105 4.49803E-5
3973.3784       1.61106 4.49E-5
3974.5991       1.61107 4.49E-5
3975.8198       1.61108 4.48804E-5
3977.0405       1.61109 4.48E-5
3978.2612       1.61111 4.47804E-5
3979.4819       1.61112 4.47E-5
3980.7026       1.61113 4.46805E-5
3981.9233       1.61114 4.46E-5
3983.144        1.61115 4.46E-5
3984.3647       1.61116 4.45805E-5
3985.5854       1.61117 4.45E-5
3986.8061       1.61118 4.44806E-5
3988.0268       1.61119 4.44E-5
3989.2475       1.6112  4.43806E-5
3990.4682       1.61121 4.43E-5
3991.6889       1.61122 4.43E-5
3992.9096       1.61123 4.42807E-5
3994.1303       1.61124 4.42E-5
3995.351        1.61125 4.41808E-5
3996.5717       1.61126 4.41E-5
3997.7924       1.61127 4.41E-5
3999.0131       1.61128 4.40808E-5
4000.2338       1.6113  4.4E-5
4001.4545       1.61131 4.39809E-5
4002.6752       1.61132 4.39E-5
4003.8959       1.61133 4.38809E-5
4005.1166       1.61134 4.38E-5
4006.3373       1.61135 4.38E-5
4007.558        1.61136 4.3781E-5
4008.7787       1.61137 4.37E-5
4009.9994       1.61138 4.36811E-5
4011.2201       1.61139 4.36E-5
4012.4408       1.6114  4.36E-5
4013.6615       1.61141 4.35811E-5
4014.8822       1.61142 4.35E-5
4016.1029       1.61143 4.34812E-5
4017.3236       1.61144 4.34E-5
4018.5443       1.61145 4.33812E-5
4019.765        1.61146 4.33E-5
4020.9857       1.61147 4.33E-5
4022.2064       1.61148 4.32813E-5
4023.4271       1.61149 4.32E-5
4024.6478       1.6115  4.31813E-5
4025.8685       1.61151 4.31E-5
4027.0892       1.61152 4.31E-5
4028.3099       1.61153 4.30814E-5
4029.5306       1.61154 4.3E-5
4030.7513       1.61155 4.29815E-5
4031.972        1.61156 4.29E-5
4033.1927       1.61157 4.29E-5
4034.4134       1.61158 4.28815E-5
4035.6341       1.61159 4.28E-5
4036.8548       1.6116  4.27816E-5
4038.0755       1.61161 4.27E-5
4039.2962       1.61162 4.27E-5
4040.5169       1.61163 4.26817E-5
4041.7376       1.61164 4.26E-5
4042.9583       1.61165 4.25817E-5
4044.179        1.61166 4.25E-5
4045.3997       1.61167 4.25E-5
4046.6204       1.61168 4.24818E-5
4047.8411       1.61169 4.24E-5
4049.0618       1.6117  4.23818E-5
4050.28249      1.61171 4.23E-5
4051.50319      1.61173 4.23E-5
4052.72389      1.61174 4.22819E-5
4053.94459      1.61175 4.22E-5
4055.16529      1.61176 4.2182E-5
4056.38599      1.61177 4.21E-5
4057.60669      1.61178 4.21E-5
4058.82739      1.61178 4.2082E-5
4060.04809      1.61179 4.2E-5
4061.26879      1.6118  4.19821E-5
4062.48949      1.61181 4.19E-5
4063.71019      1.61182 4.19E-5
4064.93089      1.61183 4.18822E-5
4066.15159      1.61184 4.18E-5
4067.37229      1.61185 4.17822E-5
4068.59299      1.61186 4.17E-5
4069.81369      1.61187 4.17E-5
4071.03439      1.61188 4.16823E-5
4072.25509      1.61189 4.16E-5
4073.47579      1.6119  4.15823E-5
4074.69649      1.61191 4.15E-5
4075.91719      1.61192 4.15E-5
4077.13789      1.61193 4.14824E-5
4078.35859      1.61194 4.14E-5
4079.57929      1.61195 4.14E-5
4080.79999      1.61196 4.13825E-5
4082.02069      1.61197 4.13E-5
4083.24139      1.61198 4.12825E-5
4084.46209      1.61199 4.12E-5
4085.68279      1.612   4.12E-5
4086.90349      1.61201 4.11826E-5
4088.12419      1.61202 4.11E-5
4089.34489      1.61203 4.10827E-5
4090.56559      1.61204 4.1E-5
4091.78629      1.61205 4.1E-5
4093.00699      1.61206 4.09827E-5
4094.22769      1.61207 4.09E-5
4095.44839      1.61208 4.09E-5
4096.66909      1.61209 4.08828E-5
4097.88979      1.6121  4.08E-5
4099.11049      1.61211 4.07828E-5
4100.33119      1.61212 4.07E-5
4101.55189      1.61213 4.07E-5
4102.77259      1.61214 4.06829E-5
4103.99329      1.61215 4.06E-5
4105.21399      1.61216 4.06E-5
4106.43469      1.61217 4.0583E-5
4107.65539      1.61218 4.05E-5
4108.87609      1.61219 4.0483E-5
4110.09679      1.6122  4.04E-5
4111.31749      1.61221 4.04E-5
4112.53819      1.61222 4.03831E-5
4113.75889      1.61222 4.03E-5
4114.97959      1.61223 4.03E-5
4116.20029      1.61224 4.02832E-5
4117.42099      1.61225 4.02E-5
4118.64169      1.61226 4.01832E-5
4119.86239      1.61227 4.01E-5
4121.08309      1.61228 4.01E-5
4122.30379      1.61229 4.00833E-5
4123.52449      1.6123  4E-5
4124.74519      1.61231 4E-5
4125.96589      1.61232 3.99834E-5
4127.18659      1.61233 3.99E-5
4128.40729      1.61234 3.98834E-5
4129.62799      1.61235 3.98E-5
4130.84869      1.61236 3.98E-5
4132.06939      1.61237 3.97835E-5
4133.29009      1.61238 3.97E-5
4134.51079      1.61239 3.97E-5
4135.73149      1.6124  3.96836E-5
4136.95219      1.6124  3.96E-5
4138.17289      1.61241 3.96E-5
4139.39359      1.61242 3.95837E-5
4140.61429      1.61243 3.95E-5
4141.83499      1.61244 3.94837E-5
4143.05569      1.61245 3.94E-5
4144.27639      1.61246 3.94E-5
4145.49709      1.61247 3.93838E-5
4146.71779      1.61248 3.93E-5
4147.93849      1.61249 3.93E-5
4149.15919      1.6125  3.92838E-5
4150.37988      1.61251 3.92E-5
4151.60058      1.61252 3.92E-5
4152.82128      1.61253 3.91839E-5
4154.04198      1.61254 3.91E-5
4155.26268      1.61254 3.91E-5
4156.48338      1.61255 3.9084E-5
4157.70408      1.61256 3.9E-5
4158.92478      1.61257 3.8984E-5
4160.14548      1.61258 3.89E-5
4161.36618      1.61259 3.89E-5
4162.58688      1.6126  3.88841E-5
4163.80758      1.61261 3.88E-5
4165.02828      1.61262 3.88E-5
4166.24898      1.61263 3.87842E-5
4167.46968      1.61264 3.87E-5
4168.69038      1.61265 3.87E-5
4169.91108      1.61266 3.86843E-5
4171.13178      1.61266 3.86E-5
4172.35248      1.61267 3.86E-5
4173.57318      1.61268 3.85844E-5
4174.79388      1.61269 3.85E-5
4176.01458      1.6127  3.85E-5
4177.23528      1.61271 3.84844E-5
4178.45598      1.61272 3.84E-5
4179.67668      1.61273 3.83845E-5
4180.89738      1.61274 3.83E-5
4182.11808      1.61275 3.83E-5
4183.33878      1.61276 3.82846E-5
4184.55948      1.61277 3.82E-5
4185.78018      1.61277 3.82E-5
4187.00088      1.61278 3.81846E-5
4188.22158      1.61279 3.81E-5
4189.44228      1.6128  3.81E-5
4190.66298      1.61281 3.80847E-5
4191.88368      1.61282 3.8E-5
4193.10438      1.61283 3.8E-5
4194.32508      1.61284 3.79848E-5
4195.54578      1.61285 3.79E-5
4196.76648      1.61286 3.79E-5
4197.98718      1.61286 3.78849E-5
4199.20788      1.61287 3.78E-5
4200.42858      1.61288 3.78E-5
4201.64928      1.61289 3.77849E-5
4202.86998      1.6129  3.77E-5
4204.09068      1.61291 3.77E-5
4205.31138      1.61292 3.7685E-5
4206.53208      1.61293 3.76E-5
4207.75278      1.61294 3.76E-5
4208.97348      1.61294 3.75851E-5
4210.19418      1.61295 3.75E-5
4211.41488      1.61296 3.75E-5
4212.63558      1.61297 3.74851E-5
4213.85628      1.61298 3.74E-5
4215.07698      1.61299 3.74E-5
4216.29768      1.613   3.73852E-5
4217.51838      1.61301 3.73E-5
4218.73908      1.61302 3.73E-5
4219.95978      1.61302 3.72853E-5
4221.18048      1.61303 3.72E-5
4222.40118      1.61304 3.72E-5
4223.62188      1.61305 3.71854E-5
4224.84258      1.61306 3.71E-5
4226.06328      1.61307 3.71E-5
4227.28398      1.61308 3.70855E-5
4228.50468      1.61309 3.7E-5
4229.72538      1.6131  3.7E-5
4230.94608      1.6131  3.69855E-5
4232.16678      1.61311 3.69E-5
4233.38748      1.61312 3.69E-5
4234.60818      1.61313 3.68856E-5
4235.82888      1.61314 3.68E-5
4237.04958      1.61315 3.68E-5
4238.27028      1.61316 3.67857E-5
4239.49098      1.61316 3.67E-5
4240.71168      1.61317 3.67E-5
4241.93238      1.61318 3.66857E-5
4243.15308      1.61319 3.66E-5
4244.37378      1.6132  3.66E-5
4245.59448      1.61321 3.65858E-5
4246.81518      1.61322 3.65E-5
4248.03588      1.61323 3.65E-5
4249.25658      1.61323 3.64859E-5
4250.47727      1.61324 3.64E-5
4251.69797      1.61325 3.64E-5
4252.91867      1.61326 3.63859E-5
4254.13937      1.61327 3.63E-5
4255.36007      1.61328 3.63E-5
4256.58077      1.61329 3.6286E-5
4257.80147      1.61329 3.62E-5
4259.02217      1.6133  3.62E-5
4260.24287      1.61331 3.61861E-5
4261.46357      1.61332 3.61E-5
4262.68427      1.61333 3.61E-5
4263.90497      1.61334 3.60862E-5
4265.12567      1.61335 3.6E-5
4266.34637      1.61335 3.6E-5
4267.56707      1.61336 3.59863E-5
4268.78777      1.61337 3.59E-5
4270.00847      1.61338 3.59E-5
4271.22917      1.61339 3.59E-5
4272.44987      1.6134  3.58864E-5
4273.67057      1.61341 3.58E-5
4274.89127      1.61341 3.58E-5
4276.11197      1.61342 3.57864E-5
4277.33267      1.61343 3.57E-5
4278.55337      1.61344 3.57E-5
4279.77407      1.61345 3.56865E-5
4280.99477      1.61346 3.56E-5
4282.21547      1.61347 3.56E-5
4283.43617      1.61347 3.55866E-5
4284.65687      1.61348 3.55E-5
4285.87757      1.61349 3.55E-5
4287.09827      1.6135  3.54866E-5
4288.31897      1.61351 3.54E-5
4289.53967      1.61352 3.54E-5
4290.76037      1.61352 3.53867E-5
4291.98107      1.61353 3.53E-5
4293.20177      1.61354 3.53E-5
4294.42247      1.61355 3.53E-5
4295.64317      1.61356 3.52868E-5
4296.86387      1.61357 3.52E-5
4298.08457      1.61357 3.52E-5
4299.30527      1.61358 3.51869E-5
4300.52597      1.61359 3.51E-5
4301.74667      1.6136  3.51E-5
4302.96737      1.61361 3.5087E-5
4304.18807      1.61362 3.5E-5
4305.40877      1.61362 3.5E-5
4306.62947      1.61363 3.4987E-5
4307.85017      1.61364 3.49E-5
4309.07087      1.61365 3.49E-5
4310.29157      1.61366 3.49E-5
4311.51227      1.61367 3.48872E-5
4312.73297      1.61367 3.48E-5
4313.95367      1.61368 3.48E-5
4315.17437      1.61369 3.47872E-5
4316.39507      1.6137  3.47E-5
4317.61577      1.61371 3.47E-5
4318.83647      1.61372 3.46873E-5
4320.05717      1.61372 3.46E-5
4321.27787      1.61373 3.46E-5
4322.49857      1.61374 3.45874E-5
4323.71927      1.61375 3.45E-5
4324.93997      1.61376 3.45E-5
4326.16067      1.61376 3.45E-5
4327.38137      1.61377 3.44875E-5
4328.60207      1.61378 3.44E-5
4329.82277      1.61379 3.44E-5
4331.04347      1.6138  3.43875E-5
4332.26417      1.61381 3.43E-5
4333.48487      1.61381 3.43E-5
4334.70557      1.61382 3.42876E-5
4335.92627      1.61383 3.42E-5
4337.14697      1.61384 3.42E-5
4338.36767      1.61385 3.42E-5
4339.58837      1.61385 3.41877E-5
4340.80907      1.61386 3.41E-5
4342.02977      1.61387 3.41E-5
4343.25047      1.61388 3.40878E-5
4344.47117      1.61389 3.4E-5
4345.69187      1.61389 3.4E-5
4346.91257      1.6139  3.39878E-5
4348.13327      1.61391 3.39E-5
4349.35397      1.61392 3.39E-5
4350.57466      1.61393 3.39E-5
4351.79536      1.61393 3.3888E-5
4353.01606      1.61394 3.38E-5
4354.23676      1.61395 3.38E-5
4355.45746      1.61396 3.3788E-5
4356.67816      1.61397 3.37E-5
4357.89886      1.61397 3.37E-5
4359.11956      1.61398 3.37E-5
4360.34026      1.61399 3.36881E-5
4361.56096      1.614   3.36E-5
4362.78166      1.61401 3.36E-5
4364.00236      1.61401 3.35882E-5
4365.22306      1.61402 3.35E-5
4366.44376      1.61403 3.35E-5
4367.66446      1.61404 3.35E-5
4368.88516      1.61405 3.34883E-5
4370.10586      1.61405 3.34E-5
4371.32656      1.61406 3.34E-5
4372.54726      1.61407 3.33884E-5
4373.76796      1.61408 3.33E-5
4374.98866      1.61409 3.33E-5
4376.20936      1.61409 3.32885E-5
4377.43006      1.6141  3.32E-5
4378.65076      1.61411 3.32E-5
4379.87146      1.61412 3.32E-5
4381.09216      1.61413 3.31885E-5
4382.31286      1.61413 3.31E-5
4383.53356      1.61414 3.31E-5
4384.75426      1.61415 3.30886E-5
4385.97496      1.61416 3.3E-5
4387.19566      1.61416 3.3E-5
4388.41636      1.61417 3.3E-5
4389.63706      1.61418 3.29887E-5
4390.85776      1.61419 3.29E-5
4392.07846      1.6142  3.29E-5
4393.29916      1.6142  3.29E-5
4394.51986      1.61421 3.28888E-5
4395.74056      1.61422 3.28E-5
4396.96126      1.61423 3.28E-5
4398.18196      1.61423 3.27889E-5
4399.40266      1.61424 3.27E-5
4400.62336      1.61425 3.27E-5
4401.84406      1.61426 3.27E-5
4403.06476      1.61427 3.2689E-5
4404.28546      1.61427 3.26E-5
4405.50616      1.61428 3.26E-5
4406.72686      1.61429 3.25891E-5
4407.94756      1.6143  3.25E-5
4409.16826      1.6143  3.25E-5
4410.38896      1.61431 3.25E-5
4411.60966      1.61432 3.24892E-5
4412.83036      1.61433 3.24E-5
4414.05106      1.61434 3.24E-5
4415.27176      1.61434 3.23893E-5
4416.49246      1.61435 3.23E-5
4417.71316      1.61436 3.23E-5
4418.93386      1.61437 3.23E-5
4420.15456      1.61437 3.22893E-5
4421.37526      1.61438 3.22E-5
4422.59596      1.61439 3.22E-5
4423.81666      1.6144  3.22E-5
4425.03736      1.6144  3.21894E-5
4426.25806      1.61441 3.21E-5
4427.47876      1.61442 3.21E-5
4428.69946      1.61443 3.20895E-5
4429.92016      1.61443 3.2E-5
4431.14086      1.61444 3.2E-5
4432.36156      1.61445 3.2E-5
4433.58226      1.61446 3.19896E-5
4434.80296      1.61446 3.19E-5
4436.02366      1.61447 3.19E-5
4437.24436      1.61448 3.19E-5
4438.46506      1.61449 3.18897E-5
4439.68576      1.6145  3.18E-5
4440.90646      1.6145  3.18E-5
4442.12716      1.61451 3.17898E-5
4443.34786      1.61452 3.17E-5
4444.56856      1.61453 3.17E-5
4445.78926      1.61453 3.17E-5
4447.00996      1.61454 3.16899E-5
4448.23066      1.61455 3.16E-5
4449.45136      1.61456 3.16E-5
4450.67205      1.61456 3.16E-5
4451.89275      1.61457 3.159E-5
4453.11345      1.61458 3.15E-5
4454.33415      1.61459 3.15E-5
4455.55485      1.61459 3.14901E-5
4456.77555      1.6146  3.14E-5
4457.99625      1.61461 3.14E-5
4459.21695      1.61462 3.14E-5
4460.43765      1.61462 3.13902E-5
4461.65835      1.61463 3.13E-5
4462.87905      1.61464 3.13E-5
4464.09975      1.61464 3.13E-5
4465.32045      1.61465 3.12903E-5
4466.54115      1.61466 3.12E-5
4467.76185      1.61467 3.12E-5
4468.98255      1.61467 3.12E-5
4470.20325      1.61468 3.11904E-5
4471.42395      1.61469 3.11E-5
4472.64465      1.6147  3.11E-5
4473.86535      1.6147  3.11E-5
4475.08605      1.61471 3.10904E-5
4476.30675      1.61472 3.1E-5
4477.52745      1.61473 3.1E-5
4478.74815      1.61473 3.09905E-5
4479.96885      1.61474 3.09E-5
4481.18955      1.61475 3.09E-5
4482.41025      1.61476 3.09E-5
4483.63095      1.61476 3.08906E-5
4484.85165      1.61477 3.08E-5
4486.07235      1.61478 3.08E-5
4487.29305      1.61478 3.08E-5
4488.51375      1.61479 3.07907E-5
4489.73445      1.6148  3.07E-5
4490.95515      1.61481 3.07E-5
4492.17585      1.61481 3.07E-5
4493.39655      1.61482 3.06908E-5
4494.61725      1.61483 3.06E-5
4495.83795      1.61484 3.06E-5
4497.05865      1.61484 3.06E-5
4498.27935      1.61485 3.05909E-5
4499.50005      1.61486 3.05E-5
4500.72075      1.61486 3.05E-5
4501.94145      1.61487 3.05E-5
4503.16215      1.61488 3.0491E-5
4504.38285      1.61489 3.04E-5
4505.60355      1.61489 3.04E-5
4506.82425      1.6149  3.04E-5
4508.04495      1.61491 3.03911E-5
4509.26565      1.61492 3.03E-5
4510.48635      1.61492 3.03E-5
4511.70705      1.61493 3.03E-5
4512.92775      1.61494 3.02912E-5
4514.14845      1.61494 3.02E-5
4515.36915      1.61495 3.02E-5
4516.58985      1.61496 3.02E-5
4517.81055      1.61497 3.01913E-5
4519.03125      1.61497 3.01E-5
4520.25195      1.61498 3.01E-5
4521.47265      1.61499 3.01E-5
4522.69335      1.61499 3.00914E-5
4523.91405      1.615   3E-5
4525.13475      1.61501 3E-5
4526.35545      1.61502 3E-5
4527.57615      1.61502 2.99915E-5
4528.79685      1.61503 2.99E-5
4530.01755      1.61504 2.99E-5
4531.23825      1.61504 2.99E-5
4532.45895      1.61505 2.98916E-5
4533.67965      1.61506 2.98E-5
4534.90035      1.61506 2.98E-5
4536.12105      1.61507 2.98E-5
4537.34175      1.61508 2.97917E-5
4538.56245      1.61509 2.97E-5
4539.78315      1.61509 2.97E-5
4541.00385      1.6151  2.97E-5
4542.22455      1.61511 2.96918E-5
4543.44525      1.61511 2.96E-5
4544.66595      1.61512 2.96E-5
4545.88665      1.61513 2.96E-5
4547.10735      1.61514 2.95919E-5
4548.32805      1.61514 2.95E-5
4549.54875      1.61515 2.95E-5
4550.76944      1.61516 2.95E-5
4551.99014      1.61516 2.9492E-5
4553.21084      1.61517 2.94E-5
4554.43154      1.61518 2.94E-5
4555.65224      1.61518 2.94E-5
4556.87294      1.61519 2.93921E-5
4558.09364      1.6152  2.93E-5
4559.31434      1.61521 2.93E-5
4560.53504      1.61521 2.93E-5
4561.75574      1.61522 2.92922E-5
4562.97644      1.61523 2.92E-5
4564.19714      1.61523 2.92E-5
4565.41784      1.61524 2.92E-5
4566.63854      1.61525 2.91923E-5
4567.85924      1.61525 2.91E-5
4569.07994      1.61526 2.91E-5
4570.30064      1.61527 2.91E-5
4571.52134      1.61527 2.90924E-5
4572.74204      1.61528 2.9E-5
4573.96274      1.61529 2.9E-5
4575.18344      1.61529 2.9E-5
4576.40414      1.6153  2.9E-5
4577.62484      1.61531 2.89925E-5
4578.84554      1.61532 2.89E-5
4580.06624      1.61532 2.89E-5
4581.28694      1.61533 2.89E-5
4582.50764      1.61534 2.88926E-5
4583.72834      1.61534 2.88E-5
4584.94904      1.61535 2.88E-5
4586.16974      1.61536 2.88E-5
4587.39044      1.61536 2.87927E-5
4588.61114      1.61537 2.87E-5
4589.83184      1.61538 2.87E-5
4591.05254      1.61538 2.87E-5
4592.27324      1.61539 2.86928E-5
4593.49394      1.6154  2.86E-5
4594.71464      1.6154  2.86E-5
4595.93534      1.61541 2.86E-5
4597.15604      1.61542 2.85929E-5
4598.37674      1.61542 2.85E-5
4599.59744      1.61543 2.85E-5
4600.81814      1.61544 2.85E-5
4602.03884      1.61544 2.85E-5
4603.25954      1.61545 2.84931E-5
4604.48024      1.61546 2.84E-5
4605.70094      1.61546 2.84E-5
4606.92164      1.61547 2.84E-5
4608.14234      1.61548 2.83931E-5
4609.36304      1.61549 2.83E-5
4610.58374      1.61549 2.83E-5
4611.80444      1.6155  2.83E-5
4613.02514      1.61551 2.82932E-5
4614.24584      1.61551 2.82E-5
4615.46654      1.61552 2.82E-5
4616.68724      1.61553 2.82E-5
4617.90794      1.61553 2.82E-5
4619.12864      1.61554 2.81934E-5
4620.34934      1.61555 2.81E-5
4621.57004      1.61555 2.81E-5
4622.79074      1.61556 2.81E-5
4624.01144      1.61557 2.80935E-5
4625.23214      1.61557 2.8E-5
4626.45284      1.61558 2.8E-5
4627.67354      1.61559 2.8E-5
4628.89424      1.61559 2.79935E-5
4630.11494      1.6156  2.79E-5
4631.33564      1.61561 2.79E-5
4632.55634      1.61561 2.79E-5
4633.77704      1.61562 2.79E-5
4634.99774      1.61562 2.78937E-5
4636.21844      1.61563 2.78E-5
4637.43914      1.61564 2.78E-5
4638.65984      1.61564 2.78E-5
4639.88054      1.61565 2.77938E-5
4641.10124      1.61566 2.77E-5
4642.32194      1.61566 2.77E-5
4643.54264      1.61567 2.77E-5
4644.76334      1.61568 2.77E-5
4645.98404      1.61568 2.76939E-5
4647.20474      1.61569 2.76E-5
4648.42544      1.6157  2.76E-5
4649.64614      1.6157  2.76E-5
4650.86683      1.61571 2.7594E-5
4652.08753      1.61572 2.75E-5
4653.30823      1.61572 2.75E-5
4654.52893      1.61573 2.75E-5
4655.74963      1.61574 2.75E-5
4656.97033      1.61574 2.74941E-5
4658.19103      1.61575 2.74E-5
4659.41173      1.61576 2.74E-5
4660.63243      1.61576 2.74E-5
4661.85313      1.61577 2.73942E-5
4663.07383      1.61578 2.73E-5
4664.29453      1.61578 2.73E-5
4665.51523      1.61579 2.73E-5
4666.73593      1.61579 2.73E-5
4667.95663      1.6158  2.72944E-5
4669.17733      1.61581 2.72E-5
4670.39803      1.61581 2.72E-5
4671.61873      1.61582 2.72E-5
4672.83943      1.61583 2.71944E-5
4674.06013      1.61583 2.71E-5
4675.28083      1.61584 2.71E-5
4676.50153      1.61585 2.71E-5
4677.72223      1.61585 2.71E-5
4678.94293      1.61586 2.70946E-5
4680.16363      1.61587 2.7E-5
4681.38433      1.61587 2.7E-5
4682.60503      1.61588 2.7E-5
4683.82573      1.61589 2.69947E-5
4685.04643      1.61589 2.69E-5
4686.26713      1.6159  2.69E-5
4687.48783      1.6159  2.69E-5
4688.70853      1.61591 2.69E-5
4689.92923      1.61592 2.68948E-5
4691.14993      1.61592 2.68E-5
4692.37063      1.61593 2.68E-5
4693.59133      1.61594 2.68E-5
4694.81203      1.61594 2.68E-5
4696.03273      1.61595 2.67949E-5
4697.25343      1.61595 2.67E-5
4698.47413      1.61596 2.67E-5
4699.69483      1.61597 2.67E-5
4700.91553      1.61597 2.6695E-5
4702.13623      1.61598 2.66E-5
4703.35693      1.61599 2.66E-5
4704.57763      1.61599 2.66E-5
4705.79833      1.616   2.66E-5
4707.01903      1.61601 2.65951E-5
4708.23973      1.61601 2.65E-5
4709.46043      1.61602 2.65E-5
4710.68113      1.61602 2.65E-5
4711.90183      1.61603 2.65E-5
4713.12253      1.61604 2.64953E-5
4714.34323      1.61604 2.64E-5
4715.56393      1.61605 2.64E-5
4716.78463      1.61606 2.64E-5
4718.00533      1.61606 2.64E-5
4719.22603      1.61607 2.63954E-5
4720.44673      1.61607 2.63E-5
4721.66743      1.61608 2.63E-5
4722.88813      1.61609 2.63E-5
4724.10883      1.61609 2.62955E-5
4725.32953      1.6161  2.62E-5
4726.55023      1.61611 2.62E-5
4727.77093      1.61611 2.62E-5
4728.99163      1.61612 2.62E-5
4730.21233      1.61612 2.61956E-5
4731.43303      1.61613 2.61E-5
4732.65373      1.61614 2.61E-5
4733.87443      1.61614 2.61E-5
4735.09513      1.61615 2.61E-5
4736.31583      1.61616 2.60957E-5
4737.53653      1.61616 2.6E-5
4738.75723      1.61617 2.6E-5
4739.97793      1.61617 2.6E-5
4741.19863      1.61618 2.6E-5
4742.41933      1.61619 2.59959E-5
4743.64003      1.61619 2.59E-5
4744.86073      1.6162  2.59E-5
4746.08143      1.6162  2.59E-5
4747.30213      1.61621 2.59E-5
4748.52283      1.61622 2.5896E-5
4749.74353      1.61622 2.58E-5
4750.96422      1.61623 2.58E-5
4752.18492      1.61624 2.58E-5
4753.40562      1.61624 2.57961E-5
4754.62632      1.61625 2.57E-5
4755.84702      1.61625 2.57E-5
4757.06772      1.61626 2.57E-5
4758.28842      1.61627 2.57E-5
4759.50912      1.61627 2.56962E-5
4760.72982      1.61628 2.56E-5
4761.95052      1.61628 2.56E-5
4763.17122      1.61629 2.56E-5
4764.39192      1.6163  2.56E-5
4765.61262      1.6163  2.55963E-5
4766.83332      1.61631 2.55E-5
4768.05402      1.61631 2.55E-5
4769.27472      1.61632 2.55E-5
4770.49542      1.61633 2.55E-5
4771.71612      1.61633 2.54965E-5
4772.93682      1.61634 2.54E-5
4774.15752      1.61634 2.54E-5
4775.37822      1.61635 2.54E-5
4776.59892      1.61636 2.54E-5
4777.81962      1.61636 2.53966E-5
4779.04032      1.61637 2.53E-5
4780.26102      1.61637 2.53E-5
4781.48172      1.61638 2.53E-5
4782.70242      1.61639 2.53E-5
4783.92312      1.61639 2.52967E-5
4785.14382      1.6164  2.52E-5
4786.36452      1.6164  2.52E-5
4787.58522      1.61641 2.52E-5
4788.80592      1.61642 2.52E-5
4790.02662      1.61642 2.51968E-5
4791.24732      1.61643 2.51E-5
4792.46802      1.61643 2.51E-5
4793.68872      1.61644 2.51E-5
4794.90942      1.61645 2.51E-5
4796.13012      1.61645 2.50969E-5
4797.35082      1.61646 2.5E-5
4798.57152      1.61646 2.5E-5
4799.79222      1.61647 2.5E-5
4801.01292      1.61648 2.5E-5
4802.23362      1.61648 2.5E-5
4803.45432      1.61649 2.49971E-5
4804.67502      1.61649 2.49E-5
4805.89572      1.6165  2.49E-5
4807.11642      1.61651 2.49E-5
4808.33712      1.61651 2.49E-5
4809.55782      1.61652 2.48972E-5
4810.77852      1.61652 2.48E-5
4811.99922      1.61653 2.48E-5
4813.21992      1.61653 2.48E-5
4814.44062      1.61654 2.48E-5
4815.66132      1.61655 2.47973E-5
4816.88202      1.61655 2.47E-5
4818.10272      1.61656 2.47E-5
4819.32342      1.61656 2.47E-5
4820.54412      1.61657 2.47E-5
4821.76482      1.61658 2.46975E-5
4822.98552      1.61658 2.46E-5
4824.20622      1.61659 2.46E-5
4825.42692      1.61659 2.46E-5
4826.64762      1.6166  2.46E-5
4827.86832      1.61661 2.45976E-5
4829.08902      1.61661 2.45E-5
4830.30972      1.61662 2.45E-5
4831.53042      1.61662 2.45E-5
4832.75112      1.61663 2.45E-5
4833.97182      1.61663 2.44977E-5
4835.19252      1.61664 2.44E-5
4836.41322      1.61665 2.44E-5
4837.63392      1.61665 2.44E-5
4838.85462      1.61666 2.44E-5
4840.07532      1.61666 2.44E-5
4841.29602      1.61667 2.43979E-5
4842.51672      1.61667 2.43E-5
4843.73742      1.61668 2.43E-5
4844.95812      1.61669 2.43E-5
4846.17882      1.61669 2.43E-5
4847.39952      1.6167  2.4298E-5
4848.62022      1.6167  2.42E-5
4849.84092      1.61671 2.42E-5
4851.06161      1.61671 2.42E-5
4852.28231      1.61672 2.42E-5
4853.50301      1.61673 2.41981E-5
4854.72371      1.61673 2.41E-5
4855.94441      1.61674 2.41E-5
4857.16511      1.61674 2.41E-5
4858.38581      1.61675 2.41E-5
4859.60651      1.61676 2.41E-5
4860.82721      1.61676 2.40982E-5
4862.04791      1.61677 2.4E-5
4863.26861      1.61677 2.4E-5
4864.48931      1.61678 2.4E-5
4865.71001      1.61678 2.4E-5
4866.93071      1.61679 2.39984E-5
4868.15141      1.61679 2.39E-5
4869.37211      1.6168  2.39E-5
4870.59281      1.61681 2.39E-5
4871.81351      1.61681 2.39E-5
4873.03421      1.61682 2.39E-5
4874.25491      1.61682 2.38985E-5
4875.47561      1.61683 2.38E-5
4876.69631      1.61683 2.38E-5
4877.91701      1.61684 2.38E-5
4879.13771      1.61685 2.38E-5
4880.35841      1.61685 2.37986E-5
4881.57911      1.61686 2.37E-5
4882.79981      1.61686 2.37E-5
4884.02051      1.61687 2.37E-5
4885.24121      1.61687 2.37E-5
4886.46191      1.61688 2.36988E-5
4887.68261      1.61689 2.36E-5
4888.90331      1.61689 2.36E-5
4890.12401      1.6169  2.36E-5
4891.34471      1.6169  2.36E-5
4892.56541      1.61691 2.36E-5
4893.78611      1.61691 2.35989E-5
4895.00681      1.61692 2.35E-5
4896.22751      1.61692 2.35E-5
4897.44821      1.61693 2.35E-5
4898.66891      1.61694 2.35E-5
4899.88961      1.61694 2.35E-5
4901.11031      1.61695 2.34991E-5
4902.33101      1.61695 2.34E-5
4903.55171      1.61696 2.34E-5
4904.77241      1.61696 2.34E-5
4905.99311      1.61697 2.34E-5
4907.21381      1.61697 2.33992E-5
4908.43451      1.61698 2.33E-5
4909.65521      1.61699 2.33E-5
4910.87591      1.61699 2.33E-5
4912.09661      1.617   2.33E-5
4913.31731      1.617   2.33E-5
4914.53801      1.61701 2.32993E-5
4915.75871      1.61701 2.32E-5
4916.97941      1.61702 2.32E-5
4918.20011      1.61702 2.32E-5
4919.42081      1.61703 2.32E-5
4920.64151      1.61703 2.31994E-5
4921.86221      1.61704 2.31E-5
4923.08291      1.61705 2.31E-5
4924.30361      1.61705 2.31E-5
4925.52431      1.61706 2.31E-5
4926.74501      1.61706 2.31E-5
4927.96571      1.61707 2.30996E-5
4929.18641      1.61707 2.3E-5
4930.40711      1.61708 2.3E-5
4931.62781      1.61708 2.3E-5
4932.84851      1.61709 2.3E-5
4934.06921      1.6171  2.3E-5
4935.28991      1.6171  2.29998E-5
4936.51061      1.61711 2.29E-5
4937.73131      1.61711 2.29E-5
4938.95201      1.61712 2.29E-5
4940.17271      1.61712 2.29E-5
4941.39341      1.61713 2.28999E-5
4942.61411      1.61713 2.28E-5
4943.83481      1.61714 2.28E-5
4945.05551      1.61714 2.28E-5
4946.27621      1.61715 2.28E-5
4947.49691      1.61715 2.28E-5
4948.71761      1.61716 2.28E-5
4949.93831      1.61717 2.27001E-5
4951.159        1.61717 2.27E-5
4952.3797       1.61718 2.27E-5
4953.6004       1.61718 2.27E-5
4954.8211       1.61719 2.27E-5
4956.0418       1.61719 2.27E-5
4957.2625       1.6172  2.26002E-5
4958.4832       1.6172  2.26E-5
4959.7039       1.61721 2.26E-5
4960.9246       1.61721 2.26E-5
4962.1453       1.61722 2.26E-5
4963.366        1.61722 2.26E-5
4964.5867       1.61723 2.25003E-5
4965.8074       1.61724 2.25E-5
4967.0281       1.61724 2.25E-5
4968.2488       1.61725 2.25E-5
4969.4695       1.61725 2.25E-5
4970.6902       1.61726 2.25E-5
4971.9109       1.61726 2.24005E-5
4973.1316       1.61727 2.24E-5
4974.3523       1.61727 2.24E-5
4975.573        1.61728 2.24E-5
4976.7937       1.61728 2.24E-5
4978.0144       1.61729 2.24E-5
4979.2351       1.61729 2.23007E-5
4980.4558       1.6173  2.23E-5
4981.6765       1.6173  2.23E-5
4982.8972       1.61731 2.23E-5
4984.1179       1.61731 2.23E-5
4985.3386       1.61732 2.23E-5
4986.5593       1.61733 2.22008E-5
4987.78 1.61733 2.22E-5
4989.0007       1.61734 2.22E-5
4990.2214       1.61734 2.22E-5
4991.4421       1.61735 2.22E-5
4992.6628       1.61735 2.22E-5
4993.8835       1.61736 2.21009E-5
4995.1042       1.61736 2.21E-5
4996.3249       1.61737 2.21E-5
4997.5456       1.61737 2.21E-5
4998.7663       1.61738 2.21E-5
4999.987        1.61738 2.21E-5
