#DISTRIBUTEDBY=Aerosol Refractive Index Archive (www.atm.ox.ac.uk/project/RI/)
#DESCRIPTION=Refractive indices of Olivine from 0 to 5000 cm-1.
#SUBSTANCE=Olivine
#SAMPLEFORM=Solid
#TEMPERATURE=
#CONCENTRATION=
#REFERENCE=D. Fabian, Th. Henning, C. Jäger, H. Mutschke, J. Dorschner, O. Werhan, Astron. Astrophys. 378, 228 (2001).
#CONTACT=
#COMMENT=Optical constants in Z ORIENTATION (i.e. E||z) of a natural olivine single crystal
#FORMAT=WAVN N K 
 0.00000	2.468584	0.000000
 1.22100	2.468590	0.000078
 2.44100	2.468611	0.000156
 3.66200	2.468645	0.000234
 4.88300	2.468693	0.000312
 6.10300	2.468754	0.000391
 7.32400	2.468829	0.000469
 8.54500	2.468918	0.000547
 9.76600	2.469020	0.000626
 10.98600	2.469137	0.000704
 12.20700	2.469267	0.000783
 13.42800	2.469410	0.000861
 14.64800	2.469568	0.000940
 15.86900	2.469739	0.001019
 17.09000	2.469924	0.001098
 18.31000	2.470123	0.001178
 19.53100	2.470335	0.001257
 20.75200	2.470562	0.001337
 21.97300	2.470803	0.001416
 23.19300	2.471057	0.001496
 24.41400	2.471326	0.001577
 25.63500	2.471608	0.001657
 26.85500	2.471905	0.001738
 28.07600	2.472216	0.001819
 29.29700	2.472541	0.001900
 30.51700	2.472880	0.001982
 31.73800	2.473233	0.002063
 32.95900	2.473601	0.002146
 34.18000	2.473983	0.002228
 35.40000	2.474379	0.002311
 36.62100	2.474790	0.002394
 37.84200	2.475216	0.002477
 39.06200	2.475656	0.002561
 40.28300	2.476110	0.002645
 41.50400	2.476580	0.002730
 42.72400	2.477064	0.002815
 43.94500	2.477563	0.002901
 45.16600	2.478077	0.002987
 46.38700	2.478606	0.003073
 47.60700	2.479150	0.003160
 48.82800	2.479710	0.003247
 50.04900	2.480284	0.003335
 51.26900	2.480874	0.003423
 52.49000	2.481480	0.003512
 53.71100	2.482101	0.003602
 54.93100	2.482737	0.003692
 56.15200	2.483389	0.003782
 57.37300	2.484058	0.003873
 58.59400	2.484741	0.003965
 59.81400	2.485442	0.004058
 61.03500	2.486158	0.004151
 62.25600	2.486890	0.004244
 63.47600	2.487639	0.004339
 64.69700	2.488405	0.004434
 65.91800	2.489187	0.004530
 67.13800	2.489985	0.004626
 68.35900	2.490801	0.004724
 69.58000	2.491633	0.004822
 70.80100	2.492483	0.004921
 72.02100	2.493350	0.005021
 73.24200	2.494235	0.005121
 74.46300	2.495136	0.005223
 75.68300	2.496056	0.005325
 76.90400	2.496994	0.005429
 78.12500	2.497949	0.005533
 79.34500	2.498923	0.005638
 80.56600	2.499915	0.005745
 81.78700	2.500926	0.005852
 83.00800	2.501955	0.005960
 84.22800	2.503004	0.006070
 85.44900	2.504071	0.006180
 86.67000	2.505157	0.006292
 87.89000	2.506263	0.006404
 89.11100	2.507389	0.006518
 90.33200	2.508535	0.006634
 91.55200	2.509700	0.006750
 92.77300	2.510886	0.006868
 93.99400	2.512093	0.006987
 95.21500	2.513320	0.007107
 96.43500	2.514568	0.007229
 97.65600	2.515837	0.007352
 98.87700	2.517128	0.007476
 100.09700	2.518440	0.007602
 101.31800	2.519774	0.007730
 102.53900	2.521131	0.007859
 103.75900	2.522509	0.007990
 104.98000	2.523911	0.008122
 106.20100	2.525336	0.008256
 107.42200	2.526783	0.008392
 108.64200	2.528255	0.008529
 109.86300	2.529750	0.008669
 111.08400	2.531270	0.008810
 112.30400	2.532814	0.008953
 113.52500	2.534383	0.009098
 114.74600	2.535977	0.009245
 115.96600	2.537597	0.009394
 117.18700	2.539243	0.009546
 118.40800	2.540915	0.009699
 119.62900	2.542613	0.009855
 120.84900	2.544339	0.010013
 122.07000	2.546092	0.010173
 123.29100	2.547873	0.010336
 124.51100	2.549681	0.010501
 125.73200	2.551519	0.010669
 126.95300	2.553386	0.010839
 128.17300	2.555282	0.011012
 129.39400	2.557208	0.011188
 130.61500	2.559165	0.011367
 131.83600	2.561153	0.011549
 133.05600	2.563172	0.011734
 134.27700	2.565223	0.011921
 135.49800	2.567307	0.012113
 136.71800	2.569424	0.012307
 137.93900	2.571574	0.012505
 139.16000	2.573759	0.012706
 140.38000	2.575979	0.012911
 141.60100	2.578233	0.013119
 142.82200	2.580524	0.013331
 144.04300	2.582852	0.013548
 145.26300	2.585217	0.013768
 146.48400	2.587620	0.013992
 147.70500	2.590062	0.014221
 148.92500	2.592544	0.014454
 150.14600	2.595065	0.014692
 151.36700	2.597628	0.014934
 152.58700	2.600233	0.015182
 153.80800	2.602880	0.015434
 155.02900	2.605571	0.015692
 156.25000	2.608306	0.015955
 157.47000	2.611087	0.016223
 158.69100	2.613914	0.016497
 159.91200	2.616788	0.016777
 161.13200	2.619711	0.017064
 162.35300	2.622683	0.017356
 163.57400	2.625705	0.017655
 164.79400	2.628779	0.017961
 166.01500	2.631906	0.018274
 167.23600	2.635086	0.018594
 168.45700	2.638322	0.018922
 169.67700	2.641613	0.019257
 170.89800	2.644963	0.019601
 172.11900	2.648372	0.019953
 173.33900	2.651841	0.020313
 174.56000	2.655373	0.020683
 175.78100	2.658968	0.021062
 177.00100	2.662628	0.021451
 178.22200	2.666355	0.021850
 179.44300	2.670150	0.022259
 180.66400	2.674016	0.022680
 181.88400	2.677954	0.023112
 183.10500	2.681966	0.023555
 184.32600	2.686055	0.024012
 185.54600	2.690221	0.024480
 186.76700	2.694468	0.024963
 187.98800	2.698798	0.025459
 189.20800	2.703213	0.025970
 190.42900	2.707715	0.026496
 191.65000	2.712308	0.027039
 192.87100	2.716993	0.027597
 194.09100	2.721774	0.028174
 195.31200	2.726654	0.028768
 196.53300	2.731636	0.029382
 197.75300	2.736722	0.030015
 198.97400	2.741917	0.030670
 200.19500	2.747224	0.031346
 201.41500	2.752646	0.032046
 202.63600	2.758188	0.032770
 203.85700	2.763854	0.033519
 205.07800	2.769647	0.034295
 206.29800	2.775573	0.035099
 207.51900	2.781636	0.035933
 208.74000	2.787841	0.036799
 209.96000	2.794193	0.037697
 211.18100	2.800698	0.038630
 212.40200	2.807363	0.039600
 213.62200	2.814192	0.040609
 214.84300	2.821193	0.041660
 216.06400	2.828372	0.042754
 217.28500	2.835737	0.043894
 218.50500	2.843295	0.045084
 219.72600	2.851055	0.046326
 220.94700	2.859026	0.047623
 222.16700	2.867216	0.048980
 223.38800	2.875636	0.050400
 224.60900	2.884295	0.051887
 225.82900	2.893206	0.053446
 227.05000	2.902379	0.055082
 228.27100	2.911829	0.056801
 229.49200	2.921567	0.058608
 230.71200	2.931609	0.060510
 231.93300	2.941971	0.062514
 233.15400	2.952668	0.064628
 234.37400	2.963719	0.066861
 235.59500	2.975143	0.069222
 236.81600	2.986962	0.071722
 238.03600	2.999196	0.074372
 239.25700	3.011871	0.077185
 240.47800	3.025012	0.080175
 241.69900	3.038648	0.083359
 242.91900	3.052809	0.086754
 244.14000	3.067528	0.090380
 245.36100	3.082842	0.094259
 246.58100	3.098791	0.098417
 247.80200	3.115416	0.102882
 249.02300	3.132766	0.107685
 250.24300	3.150892	0.112864
 251.46400	3.169849	0.118458
 252.68500	3.189702	0.124517
 253.90600	3.210516	0.131092
 255.12600	3.232368	0.138249
 256.34700	3.255342	0.146056
 257.56800	3.279527	0.154599
 258.78800	3.305029	0.163975
 260.00900	3.331958	0.174297
 261.23000	3.360440	0.185699
 262.45000	3.390612	0.198339
 263.67100	3.422631	0.212404
 264.89200	3.456668	0.228120
 266.11300	3.492909	0.245754
 267.33300	3.531565	0.265634
 268.55400	3.572861	0.288153
 269.77500	3.617047	0.313799
 270.99500	3.664386	0.343169
 272.21600	3.704667	0.395535
 273.43700	3.746172	0.452775
 274.65700	3.793262	0.515475
 275.87800	3.844500	0.586481
 277.09900	3.894079	0.670234
 278.32000	3.958441	0.762187
 279.54000	4.005974	0.877206
 280.76100	4.070860	1.009131
 281.98200	4.119001	1.166429
 283.20200	4.158687	1.355595
 284.42300	4.195403	1.578281
 285.64400	4.157860	1.843235
 286.86400	4.098659	2.152882
 288.08500	3.904513	2.444772
 289.30600	3.641534	2.715284
 290.52700	3.315368	2.908197
 291.74700	2.923640	2.986047
 292.96800	2.578418	3.002988
 294.18900	2.254979	2.885948
 295.40900	2.010214	2.770550
 296.63000	1.809754	2.626552
 297.85100	1.642988	2.481346
 299.07100	1.506940	2.364641
 300.29200	1.359064	2.209193
 301.51300	1.246376	2.072165
 302.73400	1.150626	1.897921
 303.95400	1.083545	1.729886
 305.17500	1.051037	1.568922
 306.39600	1.037156	1.395923
 307.61600	1.054623	1.248268
 308.83700	1.082843	1.096812
 310.05800	1.136045	0.967789
 311.27800	1.199415	0.850511
 312.49900	1.275204	0.749802
 313.72000	1.360482	0.674040
 314.94100	1.433615	0.613834
 316.16100	1.512163	0.567228
 317.38200	1.578485	0.528669
 318.60300	1.647860	0.497195
 319.82300	1.713286	0.473399
 321.04400	1.770187	0.455850
 322.26500	1.836990	0.441366
 323.48500	1.879998	0.436523
 324.70600	1.937240	0.428100
 325.92700	1.982854	0.427310
 327.14800	2.026625	0.428155
 328.36800	2.076887	0.426937
 329.58900	2.107623	0.438240
 330.81000	2.160050	0.441419
 332.03000	2.185136	0.458062
 333.25100	2.218713	0.465642
 334.47200	2.252160	0.472801
 335.69200	2.276349	0.488911
 336.91300	2.321661	0.495825
 338.13400	2.330573	0.522897
 339.35500	2.361786	0.533522
 340.57500	2.378197	0.551090
 341.79600	2.393573	0.568321
 343.01700	2.420133	0.577000
 344.23700	2.419657	0.597404
 345.45800	2.458838	0.603345
 346.67900	2.462449	0.626366
 347.89900	2.481032	0.639114
 349.12000	2.500066	0.650822
 350.34100	2.505139	0.672026
 351.56200	2.543442	0.679261
 352.78200	2.537663	0.710277
 354.00300	2.565620	0.727702
 355.22400	2.570940	0.754964
 356.44400	2.573902	0.783363
 357.66500	2.592330	0.803988
 358.88600	2.566819	0.842265
 360.10600	2.584253	0.858407
 361.32700	2.555490	0.886277
 362.54800	2.540968	0.900504
 363.76900	2.524821	0.903256
 364.98900	2.492809	0.901592
 366.21000	2.511647	0.881744
 367.43100	2.488267	0.882986
 368.65100	2.502845	0.870201
 369.87200	2.500547	0.861053
 371.09300	2.502594	0.849167
 372.31300	2.529025	0.829948
 373.53400	2.520962	0.824025
 374.75500	2.572664	0.799813
 375.97600	2.589213	0.799180
 377.19600	2.630035	0.795033
 378.41700	2.668787	0.798572
 379.63800	2.682495	0.815004
 380.85800	2.735307	0.803696
 382.07900	2.748119	0.816474
 383.30000	2.810821	0.818122
 384.52000	2.846559	0.834487
 385.74100	2.887471	0.850489
 386.96200	2.960076	0.858233
 388.18300	2.981358	0.900530
 389.40300	3.081952	0.917556
 390.62400	3.113205	0.973937
 391.84500	3.185396	1.014834
 393.06500	3.257877	1.068368
 394.28600	3.294581	1.155043
 395.50700	3.394796	1.201120
 396.72700	3.426457	1.303454
 397.94800	3.541427	1.420852
 399.16900	3.573181	1.572423
 400.39000	3.589535	1.741491
 401.61000	3.636136	1.906552
 402.83100	3.524731	2.111141
 404.05200	3.497234	2.281390
 405.27200	3.326869	2.377849
 406.49300	3.244413	2.439638
 407.71400	3.218133	2.480655
 408.93400	3.188704	2.543961
 410.15500	3.313309	2.715540
 411.37600	3.197275	2.955173
 412.59700	3.088673	3.284209
 413.81700	2.795823	3.498559
 415.03800	2.412080	3.624536
 416.25900	2.091737	3.670952
 417.47900	1.739072	3.504622
 418.70000	1.553587	3.441132
 419.92100	1.371979	3.274112
 421.14100	1.231518	3.157370
 422.36200	1.118889	3.053886
 423.58300	1.004457	2.904169
 424.80400	0.920690	2.842093
 426.02400	0.836280	2.680153
 427.24500	0.776389	2.592237
 428.46600	0.723510	2.479891
 429.68600	0.676587	2.366896
 430.90700	0.640175	2.290731
 432.12800	0.603757	2.161332
 433.34800	0.577352	2.100338
 434.56900	0.551372	1.993116
 435.79000	0.531201	1.906698
 437.01100	0.514632	1.825100
 438.23100	0.498976	1.721735
 439.45200	0.488907	1.655250
 440.67300	0.479784	1.545458
 441.89300	0.478390	1.464516
 443.11400	0.478723	1.370076
 444.33500	0.483652	1.269078
 445.55500	0.496445	1.176728
 446.77600	0.517366	1.056238
 447.99700	0.557717	0.958229
 449.21800	0.609605	0.842321
 450.43800	0.687532	0.735083
 451.65900	0.787197	0.643930
 452.88000	0.901734	0.570366
 454.10000	1.027743	0.533284
 455.32100	1.132799	0.514123
 456.54200	1.240107	0.504068
 457.76200	1.341482	0.500952
 458.98300	1.447669	0.508857
 460.20400	1.558151	0.533664
 461.42500	1.642475	0.578111
 462.64500	1.743421	0.624430
 463.86600	1.816882	0.688276
 465.08700	1.899476	0.765621
 466.30700	1.962209	0.853983
 467.52800	1.994911	0.952385
 468.74900	2.070052	1.050379
 469.96900	2.057520	1.199039
 471.19000	2.038755	1.362989
 472.41100	1.925058	1.487569
 473.63200	1.772271	1.561935
 474.85200	1.650868	1.574538
 476.07300	1.502418	1.526040
 477.29400	1.436440	1.466760
 478.51400	1.371308	1.361992
 479.73500	1.363373	1.256485
 480.95600	1.398208	1.161884
 482.17600	1.451430	1.077372
 483.39700	1.558133	1.032188
 484.61800	1.638675	1.010776
 485.83900	1.764119	1.026026
 487.05900	1.855723	1.072641
 488.28000	1.940639	1.140057
 489.50100	2.035827	1.222946
 490.72100	2.063031	1.328883
 491.94200	2.148462	1.454916
 493.16300	2.139785	1.592284
 494.38300	2.141192	1.754213
 495.60400	2.102307	1.904669
 496.82500	1.988886	2.036064
 498.04600	1.945525	2.190885
 499.26600	1.752610	2.254830
 500.48700	1.633435	2.345628
 501.70800	1.483903	2.369960
 502.92800	1.329987	2.377604
 504.14900	1.220079	2.403553
 505.37000	1.061112	2.332879
 506.59000	0.973525	2.349602
 507.81100	0.857212	2.278461
 509.03200	0.758568	2.235856
 510.25300	0.675471	2.187822
 511.47300	0.588356	2.092723
 512.69400	0.529154	2.066400
 513.91500	0.472421	1.950823
 515.13500	0.434774	1.904264
 516.35600	0.401636	1.833376
 517.57700	0.372022	1.762734
 518.79700	0.350005	1.726945
 520.01800	0.326438	1.636916
 521.23900	0.310395	1.617450
 522.46000	0.293576	1.548352
 523.68000	0.280796	1.503587
 524.90100	0.270750	1.463692
 526.12200	0.260525	1.401526
 527.34200	0.252417	1.386389
 528.56300	0.243769	1.318200
 529.78400	0.237918	1.292228
 531.00400	0.232896	1.248794
 532.22500	0.228527	1.205316
 533.44600	0.224758	1.183818
 534.66700	0.220629	1.123807
 535.88700	0.218733	1.112581
 537.10800	0.215040	1.066228
 538.32900	0.212030	1.036287
 539.54900	0.209679	1.007556
 540.77000	0.208001	0.960947
 541.99100	0.208280	0.949529
 543.21100	0.206646	0.898726
 544.43200	0.205930	0.879599
 545.65300	0.204174	0.845733
 546.87400	0.202125	0.809975
 548.09400	0.200645	0.789277
 549.31500	0.200288	0.736413
 550.53600	0.202960	0.722489
 551.75600	0.204523	0.680419
 552.97700	0.207008	0.652056
 554.19800	0.208862	0.624778
 555.41800	0.210307	0.581344
 556.63900	0.213648	0.564892
 557.86000	0.217205	0.514681
 559.08100	0.221404	0.490593
 560.30100	0.230142	0.470671
 561.52200	0.242965	0.447930
 562.74300	0.258383	0.437314
 563.96300	0.274457	0.406185
 565.18400	0.292982	0.396180
 566.40500	0.313727	0.368385
 567.62500	0.339896	0.347302
 568.84600	0.369391	0.326958
 570.06700	0.403464	0.304510
 571.28800	0.440810	0.291533
 572.50800	0.481118	0.277023
 573.72900	0.522432	0.270804
 574.95000	0.555756	0.247844
 576.17000	0.588328	0.228062
 577.39100	0.619842	0.210974
 578.61200	0.650140	0.196136
 579.83200	0.679167	0.183171
 581.05300	0.706930	0.171763
 582.27400	0.733473	0.161658
 583.49500	0.758853	0.152649
 584.71500	0.783138	0.144568
 585.93600	0.806393	0.137280
 587.15700	0.828694	0.130672
 588.37700	0.850099	0.124654
 589.59800	0.870669	0.119149
 590.81900	0.890460	0.114093
 592.03900	0.909524	0.109435
 593.26000	0.927909	0.105128
 594.48100	0.945656	0.101134
 595.70200	0.962806	0.097421
 596.92200	0.979394	0.093960
 598.14300	0.995457	0.090725
 599.36400	1.011023	0.087697
 600.58400	1.026122	0.084855
 601.80500	1.040780	0.082183
 603.02600	1.055021	0.079668
 604.24600	1.068868	0.077295
 605.46700	1.082341	0.075054
 606.68800	1.095459	0.072933
 607.90900	1.108240	0.070925
 609.12900	1.120702	0.069020
 610.35000	1.132860	0.067211
 611.57100	1.144728	0.065491
 612.79100	1.156321	0.063855
 614.01200	1.167650	0.062296
 615.23300	1.178728	0.060809
 616.45300	1.189566	0.059391
 617.67400	1.200174	0.058036
 618.89500	1.210564	0.056741
 620.11600	1.220744	0.055502
 621.33600	1.230722	0.054316
 622.55700	1.240508	0.053180
 623.77800	1.250110	0.052090
 624.99800	1.259534	0.051046
 626.21900	1.268788	0.050043
 627.44000	1.277880	0.049080
 628.66000	1.286813	0.048156
 629.88100	1.295596	0.047267
 631.10200	1.304235	0.046412
 632.32300	1.312734	0.045589
 633.54300	1.321099	0.044797
 634.76400	1.329336	0.044035
 635.98500	1.337448	0.043301
 637.20500	1.345441	0.042594
 638.42600	1.353318	0.041912
 639.64700	1.361085	0.041254
 640.86700	1.368745	0.040620
 642.08800	1.376302	0.040009
 643.30900	1.383760	0.039418
 644.53000	1.391123	0.038849
 645.75000	1.398394	0.038299
 646.97100	1.405576	0.037768
 648.19200	1.412672	0.037256
 649.41200	1.419686	0.036761
 650.63300	1.426620	0.036282
 651.85400	1.433478	0.035821
 653.07400	1.440263	0.035375
 654.29500	1.446976	0.034944
 655.51600	1.453620	0.034527
 656.73700	1.460199	0.034125
 657.95700	1.466714	0.033737
 659.17800	1.473168	0.033361
 660.39900	1.479563	0.032999
 661.61900	1.485901	0.032648
 662.84000	1.492185	0.032310
 664.06100	1.498416	0.031984
 665.28100	1.504598	0.031668
 666.50200	1.510730	0.031364
 667.72300	1.516817	0.031071
 668.94400	1.522859	0.030787
 670.16400	1.528857	0.030514
 671.38500	1.534815	0.030251
 672.60600	1.540735	0.029997
 673.82600	1.546616	0.029753
 675.04700	1.552462	0.029518
 676.26800	1.558274	0.029291
 677.48800	1.564054	0.029074
 678.70900	1.569803	0.028865
 679.93000	1.575522	0.028664
 681.15100	1.581214	0.028471
 682.37100	1.586879	0.028286
 683.59200	1.592520	0.028110
 684.81300	1.598137	0.027941
 686.03300	1.603733	0.027779
 687.25400	1.609308	0.027625
 688.47500	1.614864	0.027478
 689.69500	1.620403	0.027339
 690.91600	1.625926	0.027206
 692.13700	1.631432	0.027081
 693.35800	1.636926	0.026962
 694.57800	1.642408	0.026850
 695.79900	1.647878	0.026745
 697.02000	1.653340	0.026647
 698.24000	1.658792	0.026555
 699.46100	1.664238	0.026470
 700.68200	1.669679	0.026391
 701.90200	1.675114	0.026319
 703.12300	1.680547	0.026253
 704.34400	1.685978	0.026193
 705.56500	1.691408	0.026140
 706.78500	1.696839	0.026093
 708.00600	1.702273	0.026053
 709.22700	1.707709	0.026019
 710.44700	1.713151	0.025990
 711.66800	1.718598	0.025969
 712.88900	1.724052	0.025953
 714.10900	1.729515	0.025944
 715.33000	1.734987	0.025941
 716.55100	1.740471	0.025944
 717.77200	1.745968	0.025954
 718.99200	1.751478	0.025970
 720.21300	1.757004	0.025992
 721.43400	1.762546	0.026021
 722.65400	1.768106	0.026057
 723.87500	1.773685	0.026098
 725.09600	1.779286	0.026147
 726.31600	1.784908	0.026202
 727.53700	1.790554	0.026264
 728.75800	1.796226	0.026332
 729.97900	1.801924	0.026408
 731.19900	1.807651	0.026490
 732.42000	1.813407	0.026580
 733.64100	1.819194	0.026677
 734.86100	1.825015	0.026781
 736.08200	1.830870	0.026892
 737.30300	1.836762	0.027011
 738.52300	1.842692	0.027138
 739.74400	1.848661	0.027273
 740.96500	1.854672	0.027415
 742.18600	1.860727	0.027566
 743.40600	1.866827	0.027725
 744.62700	1.872974	0.027893
 745.84800	1.879170	0.028069
 747.06800	1.885417	0.028254
 748.28900	1.891718	0.028448
 749.51000	1.898075	0.028652
 750.73000	1.904488	0.028865
 751.95100	1.910962	0.029088
 753.17200	1.917498	0.029321
 754.39300	1.924098	0.029565
 755.61300	1.930766	0.029819
 756.83400	1.937503	0.030084
 758.05500	1.944312	0.030361
 759.27500	1.951196	0.030649
 760.49600	1.958158	0.030950
 761.71700	1.965200	0.031262
 762.93700	1.972325	0.031588
 764.15800	1.979538	0.031927
 765.37900	1.986839	0.032280
 766.60000	1.994233	0.032646
 767.82000	2.001725	0.033028
 769.04100	2.009316	0.033425
 770.26200	2.017010	0.033837
 771.48200	2.024812	0.034266
 772.70300	2.032726	0.034712
 773.92400	2.040755	0.035176
 775.14400	2.048904	0.035658
 776.36500	2.057176	0.036159
 777.58600	2.065577	0.036680
 778.80700	2.074112	0.037222
 780.02700	2.082787	0.037785
 781.24800	2.091604	0.038371
 782.46900	2.100571	0.038980
 783.68900	2.109693	0.039614
 784.91000	2.118976	0.040274
 786.13100	2.128426	0.040960
 787.35100	2.138050	0.041675
 788.57200	2.147854	0.042419
 789.79300	2.157847	0.043194
 791.01400	2.168034	0.044001
 792.23400	2.178425	0.044842
 793.45500	2.189028	0.045719
 794.67600	2.199850	0.046633
 795.89600	2.210902	0.047587
 797.11700	2.222191	0.048583
 798.33800	2.233731	0.049622
 799.55800	2.245530	0.050708
 800.77900	2.257600	0.051842
 802.00000	2.269953	0.053028
 803.22100	2.282602	0.054269
 804.44100	2.295559	0.055567
 805.66200	2.308840	0.056927
 806.88300	2.322457	0.058352
 808.10300	2.336428	0.059846
 809.32400	2.350771	0.061414
 810.54500	2.365501	0.063059
 811.76500	2.380639	0.064788
 812.98600	2.396205	0.066606
 814.20700	2.412220	0.068520
 815.42800	2.428707	0.070534
 816.64800	2.445691	0.072657
 817.86900	2.463197	0.074897
 819.09000	2.481257	0.077263
 820.31000	2.499898	0.079763
 821.53100	2.519154	0.082408
 822.75200	2.539060	0.085210
 823.97200	2.559653	0.088182
 825.19300	2.580975	0.091336
 826.41400	2.603070	0.094689
 827.63500	2.625986	0.098258
 828.85500	2.649770	0.102061
 830.07600	2.674485	0.106121
 831.29700	2.700190	0.110460
 832.51700	2.726952	0.115107
 833.73800	2.754843	0.120090
 834.95900	2.783945	0.125443
 836.17900	2.814343	0.131206
 837.40000	2.846136	0.137421
 838.62100	2.879428	0.144138
 839.84200	2.914339	0.151414
 841.06200	2.951000	0.159314
 842.28300	2.989555	0.167914
 843.50400	3.030165	0.177301
 844.72400	3.073012	0.187576
 845.94500	3.118297	0.198857
 847.16600	3.166248	0.211285
 848.38600	3.217126	0.225025
 849.60700	3.271209	0.240269
 850.82800	3.328841	0.257259
 852.04900	3.390394	0.276275
 853.26900	3.456297	0.297662
 854.49000	3.527044	0.321842
 855.71100	3.603201	0.349338
 856.93100	3.680708	0.405111
 858.15200	3.779042	0.453585
 859.37300	3.849632	0.533573
 860.59300	3.953830	0.604265
 861.81400	4.067136	0.686486
 863.03500	4.148791	0.824033
 864.25600	4.399938	0.887613
 865.47600	4.434423	1.152755
 866.69700	4.745860	1.348125
 867.91800	4.783168	1.699947
 869.13800	4.831676	2.167240
 870.35900	4.970144	2.604856
 871.58000	4.387414	3.265353
 872.80000	4.407859	3.851048
 874.02100	3.682315	4.184009
 875.24200	3.176538	4.522252
 876.46300	2.783988	4.563822
 877.68300	2.151290	4.347967
 878.90400	1.996498	4.453725
 880.12500	1.560896	4.057304
 881.34500	1.386122	4.009513
 882.56600	1.199519	3.810315
 883.78700	1.013132	3.593953
 885.00700	0.935678	3.556236
 886.22800	0.773738	3.232385
 887.44900	0.739940	3.255257
 888.67000	0.655550	3.047166
 889.89000	0.601874	2.951158
 891.11100	0.563582	2.877752
 892.33200	0.504607	2.695364
 893.55200	0.494273	2.720993
 894.77300	0.447223	2.525034
 895.99400	0.432117	2.507618
 897.21400	0.408210	2.417835
 898.43500	0.384021	2.324525
 899.65600	0.374838	2.319970
 900.87700	0.343644	2.165480
 902.09700	0.339747	2.195811
 903.31800	0.319126	2.092285
 904.53900	0.306252	2.053075
 905.75900	0.295823	2.021030
 906.98000	0.278279	1.923740
 908.20100	0.274255	1.953059
 909.42100	0.255977	1.835360
 910.64200	0.249578	1.832337
 911.86300	0.240099	1.777991
 913.08400	0.230999	1.721505
 914.30400	0.227403	1.723568
 915.52500	0.214653	1.621817
 916.74600	0.211500	1.648565
 917.96600	0.201299	1.577895
 919.18700	0.194459	1.553031
 920.40800	0.189145	1.531911
 921.62800	0.181287	1.463365
 922.84900	0.177968	1.488471
 924.07000	0.168020	1.401797
 925.29100	0.163805	1.401238
 926.51100	0.158450	1.361085
 927.73200	0.152965	1.319043
 928.95300	0.149604	1.320606
 930.17300	0.143089	1.240710
 931.39400	0.140824	1.260684
 932.61500	0.136090	1.204390
 933.83500	0.132942	1.184332
 935.05600	0.130468	1.166973
 936.27700	0.127190	1.111569
 937.49800	0.126105	1.130123
 938.71800	0.122344	1.060727
 939.93900	0.120485	1.060566
 941.16000	0.117762	1.027862
 942.38000	0.114834	0.993122
 943.60100	0.112713	0.993340
 944.82200	0.109453	0.926114
 946.04200	0.109005	0.940408
 947.26300	0.107909	0.892502
 948.48400	0.107353	0.874731
 949.70500	0.106591	0.858779
 950.92500	0.105641	0.809868
 952.14600	0.106334	0.821891
 953.36700	0.107184	0.759249
 954.58700	0.112000	0.754407
 955.80800	0.118536	0.724650
 957.02900	0.127042	0.697867
 958.24900	0.133458	0.705675
 959.47000	0.131556	0.658266
 960.69100	0.126904	0.678101
 961.91200	0.120316	0.637631
 963.13200	0.115974	0.621391
 964.35300	0.113346	0.606223
 965.57400	0.110893	0.561259
 966.79400	0.110199	0.571703
 968.01500	0.109271	0.514425
 969.23600	0.109924	0.510413
 970.45600	0.109764	0.481386
 971.67700	0.110114	0.449510
 972.89800	0.110805	0.445627
 974.11900	0.111733	0.387156
 975.33900	0.113722	0.394861
 976.56000	0.114849	0.351320
 977.78100	0.117449	0.330424
 979.00100	0.119269	0.341166
 980.22200	0.123103	0.327933
 981.44300	0.126706	0.346224
 982.66300	0.130486	0.330148
 983.88400	0.137512	0.330594
 985.10500	0.142354	0.323305
 986.32600	0.155216	0.288709
 987.54600	0.164542	0.255194
 988.76700	0.183276	0.224214
 989.98800	0.202049	0.197058
 991.20800	0.225654	0.174278
 992.42900	0.256339	0.155626
 993.65000	0.286780	0.140435
 994.87000	0.322100	0.127981
 996.09100	0.363991	0.117643
 997.31200	0.408860	0.108945
 998.53300	0.443769	0.101523
 999.75300	0.477414	0.095112
 1000.97400	0.507000	0.089511
 1002.19500	0.526892	0.084570
 1003.41500	0.545821	0.080172
 1004.63600	0.563871	0.076227
 1005.85700	0.581114	0.072665
 1007.07700	0.597616	0.069429
 1008.29800	0.613434	0.066474
 1009.51900	0.628621	0.063762
 1010.74000	0.643221	0.061263
 1011.96000	0.657278	0.058951
 1013.18100	0.670826	0.056805
 1014.40200	0.683899	0.054806
 1015.62200	0.696528	0.052939
 1016.84300	0.708741	0.051190
 1018.06400	0.720559	0.049549
 1019.28400	0.732008	0.048005
 1020.50500	0.743108	0.046549
 1021.72600	0.753878	0.045174
 1022.94700	0.764335	0.043872
 1024.16700	0.774495	0.042638
 1025.38800	0.784373	0.041467
 1026.60900	0.793983	0.040353
 1027.82900	0.803337	0.039294
 1029.05000	0.812448	0.038283
 1030.27100	0.821325	0.037318
 1031.49100	0.829981	0.036397
 1032.71200	0.838422	0.035515
 1033.93300	0.846660	0.034672
 1035.15400	0.854704	0.033863
 1036.37400	0.862560	0.033087
 1037.59500	0.870236	0.032341
 1038.81600	0.877738	0.031626
 1040.03600	0.885076	0.030937
 1041.25700	0.892251	0.030274
 1042.47800	0.899274	0.029636
 1043.69800	0.906147	0.029021
 1044.91900	0.912877	0.028428
 1046.14000	0.919470	0.027856
 1047.36100	0.925928	0.027303
 1048.58100	0.932259	0.026769
 1049.80200	0.938463	0.026253
 1051.02300	0.944548	0.025753
 1052.24300	0.950516	0.025270
 1053.46400	0.956371	0.024802
 1054.68500	0.962116	0.024349
 1055.90500	0.967755	0.023910
 1057.12600	0.973293	0.023484
 1058.34700	0.978729	0.023070
 1059.56800	0.984070	0.022669
 1060.78800	0.989317	0.022280
 1062.00900	0.994472	0.021902
 1063.23000	0.999539	0.021535
 1064.45000	1.004520	0.021178
 1065.67100	1.009417	0.020831
 1066.89200	1.014232	0.020493
 1068.11200	1.018969	0.020165
 1069.33300	1.023629	0.019845
 1070.55400	1.028214	0.019534
 1071.77500	1.032726	0.019230
 1072.99500	1.037167	0.018935
 1074.21600	1.041538	0.018647
 1075.43700	1.045841	0.018367
 1076.65700	1.050080	0.018093
 1077.87800	1.054254	0.017826
 1079.09900	1.058366	0.017565
 1080.31900	1.062416	0.017311
 1081.54000	1.066407	0.017063
 1082.76100	1.070339	0.016821
 1083.98200	1.074216	0.016585
 1085.20200	1.078036	0.016354
 1086.42300	1.081802	0.016128
 1087.64400	1.085515	0.015907
 1088.86400	1.089177	0.015692
 1090.08500	1.092788	0.015481
 1091.30600	1.096349	0.015274
 1092.52600	1.099863	0.015073
 1093.74700	1.103328	0.014875
 1094.96800	1.106748	0.014682
 1096.18900	1.110122	0.014493
 1097.40900	1.113452	0.014308
 1098.63000	1.116739	0.014127
 1099.85100	1.119983	0.013950
 1101.07100	1.123186	0.013776
 1102.29200	1.126347	0.013606
 1103.51300	1.129470	0.013439
 1104.73300	1.132552	0.013275
 1105.95400	1.135597	0.013115
 1107.17500	1.138604	0.012958
 1108.39600	1.141574	0.012804
 1109.61600	1.144508	0.012653
 1110.83700	1.147407	0.012505
 1112.05800	1.150271	0.012359
 1113.27800	1.153101	0.012217
 1114.49900	1.155898	0.012077
 1115.72000	1.158662	0.011940
 1116.94000	1.161394	0.011805
 1118.16100	1.164094	0.011673
 1119.38200	1.166762	0.011543
 1120.60300	1.169402	0.011415
 1121.82300	1.172011	0.011290
 1123.04400	1.174591	0.011167
 1124.26500	1.177141	0.011046
 1125.48500	1.179664	0.010927
 1126.70600	1.182159	0.010811
 1127.92700	1.184626	0.010696
 1129.14700	1.187067	0.010583
 1130.36800	1.189481	0.010473
 1131.58900	1.191870	0.010364
 1132.81000	1.194233	0.010257
 1134.03000	1.196571	0.010151
 1135.25100	1.198885	0.010048
 1136.47200	1.201174	0.009946
 1137.69200	1.203439	0.009846
 1138.91300	1.205681	0.009747
 1140.13400	1.207900	0.009650
 1141.35400	1.210097	0.009555
 1142.57500	1.212271	0.009461
 1143.79600	1.214423	0.009369
 1145.01700	1.216554	0.009278
 1146.23700	1.218663	0.009188
 1147.45800	1.220752	0.009100
 1148.67900	1.222820	0.009013
 1149.89900	1.224867	0.008928
 1151.12000	1.226896	0.008844
 1152.34100	1.228904	0.008761
 1153.56100	1.230893	0.008679
 1154.78200	1.232863	0.008599
 1156.00300	1.234814	0.008519
 1157.22400	1.236746	0.008442
 1158.44400	1.238661	0.008365
 1159.66500	1.240557	0.008289
 1160.88600	1.242436	0.008214
 1162.10600	1.244298	0.008141
 1163.32700	1.246142	0.008068
 1164.54800	1.247970	0.007996
 1165.76800	1.249781	0.007926
 1166.98900	1.251576	0.007857
 1168.21000	1.253354	0.007788
 1169.43100	1.255116	0.007721
 1170.65100	1.256863	0.007654
 1171.87200	1.258594	0.007588
 1173.09300	1.260310	0.007523
 1174.31300	1.262011	0.007459
 1175.53400	1.263697	0.007396
 1176.75500	1.265368	0.007334
 1177.97500	1.267025	0.007273
 1179.19600	1.268668	0.007212
 1180.41700	1.270296	0.007153
 1181.63800	1.271911	0.007094
 1182.85800	1.273512	0.007035
 1184.07900	1.275100	0.006978
 1185.30000	1.276674	0.006921
 1186.52000	1.278235	0.006865
 1187.74100	1.279783	0.006810
 1188.96200	1.281318	0.006756
 1190.18200	1.282841	0.006702
 1191.40300	1.284351	0.006649
 1192.62400	1.285849	0.006596
 1193.84500	1.287334	0.006545
 1195.06500	1.288808	0.006493
 1196.28600	1.290270	0.006443
 1197.50700	1.291720	0.006393
 1198.72700	1.293158	0.006344
 1199.94800	1.294586	0.006295
 1201.16900	1.296001	0.006247
 1202.38900	1.297406	0.006199
 1203.61000	1.298800	0.006152
 1204.83100	1.300183	0.006106
 1206.05200	1.301555	0.006060
 1207.27200	1.302916	0.006015
 1208.49300	1.304267	0.005970
 1209.71400	1.305608	0.005926
 1210.93400	1.306939	0.005882
 1212.15500	1.308259	0.005839
 1213.37600	1.309569	0.005797
 1214.59600	1.310870	0.005754
 1215.81700	1.312161	0.005713
 1217.03800	1.313442	0.005671
 1218.25900	1.314713	0.005631
 1219.47900	1.315976	0.005590
 1220.70000	1.317229	0.005551
 1221.92100	1.318473	0.005511
 1223.14100	1.319707	0.005472
 1224.36200	1.320933	0.005434
 1225.58300	1.322150	0.005396
 1226.80300	1.323358	0.005358
 1228.02400	1.324557	0.005321
 1229.24500	1.325748	0.005284
 1230.46600	1.326930	0.005247
 1231.68600	1.328104	0.005211
 1232.90700	1.329270	0.005176
 1234.12800	1.330427	0.005141
 1235.34800	1.331576	0.005106
 1236.56900	1.332717	0.005071
 1237.79000	1.333850	0.005037
 1239.01000	1.334976	0.005003
 1240.23100	1.336093	0.004970
 1241.45200	1.337203	0.004937
 1242.67300	1.338305	0.004904
 1243.89300	1.339400	0.004872
 1245.11400	1.340488	0.004839
 1246.33500	1.341567	0.004808
 1247.55500	1.342640	0.004776
 1248.77600	1.343705	0.004745
 1249.99700	1.344764	0.004715
 1251.21700	1.345815	0.004684
 1252.43800	1.346859	0.004654
 1253.65900	1.347896	0.004624
 1254.88000	1.348927	0.004595
 1256.10000	1.349951	0.004565
 1257.32100	1.350968	0.004536
 1258.54200	1.351978	0.004508
 1259.76200	1.352982	0.004479
 1260.98300	1.353979	0.004451
 1262.20400	1.354970	0.004423
 1263.42400	1.355954	0.004396
 1264.64500	1.356932	0.004369
 1265.86600	1.357904	0.004341
 1267.08700	1.358869	0.004315
 1268.30700	1.359829	0.004288
 1269.52800	1.360782	0.004262
 1270.74900	1.361730	0.004236
 1271.96900	1.362671	0.004210
 1273.19000	1.363607	0.004185
 1274.41100	1.364537	0.004159
 1275.63100	1.365460	0.004134
 1276.85200	1.366379	0.004110
 1278.07300	1.367291	0.004085
 1279.29400	1.368198	0.004061
 1280.51400	1.369099	0.004037
 1281.73500	1.369995	0.004013
 1282.95600	1.370886	0.003989
 1284.17600	1.371771	0.003966
 1285.39700	1.372650	0.003942
 1286.61800	1.373524	0.003919
 1287.83800	1.374393	0.003897
 1289.05900	1.375257	0.003874
 1290.28000	1.376116	0.003852
 1291.50100	1.376969	0.003829
 1292.72100	1.377818	0.003808
 1293.94200	1.378661	0.003786
 1295.16300	1.379500	0.003764
 1296.38300	1.380333	0.003743
 1297.60400	1.381162	0.003721
 1298.82500	1.381986	0.003700
 1300.04500	1.382805	0.003679
 1301.26600	1.383619	0.003659
 1302.48700	1.384429	0.003638
 1303.70800	1.385234	0.003618
 1304.92800	1.386034	0.003598
 1306.14900	1.386829	0.003578
 1307.37000	1.387620	0.003558
 1308.59000	1.388407	0.003539
 1309.81100	1.389189	0.003519
 1311.03200	1.389967	0.003500
 1312.25200	1.390740	0.003481
 1313.47300	1.391509	0.003462
 1314.69400	1.392274	0.003443
 1315.91500	1.393034	0.003424
 1317.13500	1.393790	0.003406
 1318.35600	1.394542	0.003387
 1319.57700	1.395290	0.003369
 1320.79700	1.396033	0.003351
 1322.01800	1.396773	0.003333
 1323.23900	1.397508	0.003315
 1324.45900	1.398239	0.003298
 1325.68000	1.398967	0.003280
 1326.90100	1.399690	0.003263
 1328.12200	1.400410	0.003246
 1329.34200	1.401125	0.003229
 1330.56300	1.401837	0.003212
 1331.78400	1.402545	0.003195
 1333.00400	1.403249	0.003179
 1334.22500	1.403949	0.003162
 1335.44600	1.404646	0.003146
 1336.66600	1.405339	0.003130
 1337.88700	1.406028	0.003114
 1339.10800	1.406713	0.003097
 1340.32900	1.407395	0.003082
 1341.54900	1.408074	0.003066
 1342.77000	1.408748	0.003050
 1343.99100	1.409419	0.003035
 1345.21100	1.410087	0.003020
 1346.43200	1.410751	0.003004
 1347.65300	1.411412	0.002989
 1348.87300	1.412069	0.002974
 1350.09400	1.412723	0.002959
 1351.31500	1.413374	0.002944
 1352.53600	1.414021	0.002930
 1353.75600	1.414665	0.002915
 1354.97700	1.415306	0.002901
 1356.19800	1.415943	0.002886
 1357.41800	1.416577	0.002872
 1358.63900	1.417208	0.002858
 1359.86000	1.417836	0.002844
 1361.08000	1.418460	0.002830
 1362.30100	1.419081	0.002816
 1363.52200	1.419700	0.002803
 1364.74300	1.420315	0.002789
 1365.96300	1.420927	0.002776
 1367.18400	1.421536	0.002762
 1368.40500	1.422142	0.002749
 1369.62500	1.422745	0.002736
 1370.84600	1.423345	0.002723
 1372.06700	1.423942	0.002710
 1373.28700	1.424536	0.002697
 1374.50800	1.425128	0.002684
 1375.72900	1.425716	0.002671
 1376.95000	1.426301	0.002659
 1378.17000	1.426884	0.002646
 1379.39100	1.427464	0.002634
 1380.61200	1.428041	0.002621
 1381.83200	1.428615	0.002609
 1383.05300	1.429186	0.002597
 1384.27400	1.429755	0.002585
 1385.49400	1.430321	0.002573
 1386.71500	1.430884	0.002561
 1387.93600	1.431445	0.002549
 1389.15700	1.432002	0.002537
 1390.37700	1.432558	0.002526
 1391.59800	1.433110	0.002514
 1392.81900	1.433660	0.002502
 1394.03900	1.434208	0.002491
 1395.26000	1.434752	0.002480
 1396.48100	1.435295	0.002468
 1397.70100	1.435835	0.002457
 1398.92200	1.436372	0.002446
 1400.14300	1.436906	0.002435
 1401.36400	1.437439	0.002424
 1402.58400	1.437968	0.002413
 1403.80500	1.438496	0.002402
 1405.02600	1.439021	0.002391
 1406.24600	1.439543	0.002381
 1407.46700	1.440063	0.002370
 1408.68800	1.440581	0.002360
 1409.90800	1.441096	0.002349
 1411.12900	1.441609	0.002339
 1412.35000	1.442120	0.002328
 1413.57100	1.442628	0.002318
 1414.79100	1.443134	0.002308
 1416.01200	1.443638	0.002298
 1417.23300	1.444139	0.002288
 1418.45300	1.444638	0.002278
 1419.67400	1.445135	0.002268
 1420.89500	1.445630	0.002258
 1422.11500	1.446123	0.002248
 1423.33600	1.446613	0.002239
 1424.55700	1.447101	0.002229
 1425.77800	1.447587	0.002219
 1426.99800	1.448071	0.002210
 1428.21900	1.448552	0.002200
 1429.44000	1.449032	0.002191
 1430.66000	1.449509	0.002182
 1431.88100	1.449985	0.002172
 1433.10200	1.450458	0.002163
 1434.32200	1.450929	0.002154
 1435.54300	1.451398	0.002145
 1436.76400	1.451865	0.002136
 1437.98500	1.452331	0.002127
 1439.20500	1.452794	0.002118
 1440.42600	1.453255	0.002109
 1441.64700	1.453714	0.002100
 1442.86700	1.454171	0.002091
 1444.08800	1.454626	0.002083
 1445.30900	1.455079	0.002074
 1446.52900	1.455530	0.002065
 1447.75000	1.455980	0.002057
 1448.97100	1.456427	0.002048
 1450.19200	1.456873	0.002040
 1451.41200	1.457316	0.002031
 1452.63300	1.457758	0.002023
 1453.85400	1.458198	0.002015
 1455.07400	1.458636	0.002007
 1456.29500	1.459072	0.001998
 1457.51600	1.459506	0.001990
 1458.73600	1.459939	0.001982
 1459.95700	1.460370	0.001974
 1461.17800	1.460799	0.001966
 1462.39900	1.461226	0.001958
 1463.61900	1.461651	0.001950
 1464.84000	1.462075	0.001942
 1466.06100	1.462497	0.001935
 1467.28100	1.462917	0.001927
 1468.50200	1.463335	0.001919
 1469.72300	1.463752	0.001912
 1470.94300	1.464167	0.001904
 1472.16400	1.464580	0.001896
 1473.38500	1.464992	0.001889
 1474.60600	1.465402	0.001881
 1475.82600	1.465810	0.001874
 1477.04700	1.466216	0.001866
 1478.26800	1.466621	0.001859
 1479.48800	1.467024	0.001852
 1480.70900	1.467426	0.001844
 1481.93000	1.467826	0.001837
 1483.15000	1.468225	0.001830
 1484.37100	1.468621	0.001823
 1485.59200	1.469017	0.001816
 1486.81300	1.469410	0.001809
 1488.03300	1.469802	0.001802
 1489.25400	1.470193	0.001795
 1490.47500	1.470582	0.001788
 1491.69500	1.470969	0.001781
 1492.91600	1.471355	0.001774
 1494.13700	1.471740	0.001767
 1495.35700	1.472122	0.001761
 1496.57800	1.472504	0.001754
 1497.79900	1.472883	0.001747
 1499.02000	1.473262	0.001740
 1500.24000	1.473639	0.001734
 1501.46100	1.474014	0.001727
 1502.68200	1.474388	0.001721
 1503.90200	1.474761	0.001714
 1505.12300	1.475132	0.001708
 1506.34400	1.475501	0.001701
 1507.56400	1.475869	0.001695
 1508.78500	1.476236	0.001689
 1510.00600	1.476601	0.001682
 1511.22700	1.476965	0.001676
 1512.44700	1.477328	0.001670
 1513.66800	1.477689	0.001663
 1514.88900	1.478049	0.001657
 1516.10900	1.478407	0.001651
 1517.33000	1.478764	0.001645
 1518.55100	1.479120	0.001639
 1519.77100	1.479474	0.001633
 1520.99200	1.479827	0.001627
 1522.21300	1.480179	0.001621
 1523.43400	1.480529	0.001615
 1524.65400	1.480878	0.001609
 1525.87500	1.481226	0.001603
 1527.09600	1.481572	0.001597
 1528.31600	1.481917	0.001591
 1529.53700	1.482261	0.001585
 1530.75800	1.482603	0.001580
 1531.97800	1.482945	0.001574
 1533.19900	1.483284	0.001568
 1534.42000	1.483623	0.001563
 1535.64100	1.483961	0.001557
 1536.86100	1.484297	0.001551
 1538.08200	1.484632	0.001546
 1539.30300	1.484965	0.001540
 1540.52300	1.485298	0.001535
 1541.74400	1.485629	0.001529
 1542.96500	1.485959	0.001524
 1544.18500	1.486288	0.001518
 1545.40600	1.486616	0.001513
 1546.62700	1.486942	0.001507
 1547.84800	1.487267	0.001502
 1549.06800	1.487591	0.001497
 1550.28900	1.487914	0.001491
 1551.51000	1.488236	0.001486
 1552.73000	1.488556	0.001481
 1553.95100	1.488876	0.001476
 1555.17200	1.489194	0.001471
 1556.39200	1.489511	0.001465
 1557.61300	1.489827	0.001460
 1558.83400	1.490142	0.001455
 1560.05500	1.490455	0.001450
 1561.27500	1.490768	0.001445
 1562.49600	1.491079	0.001440
 1563.71700	1.491389	0.001435
 1564.93700	1.491699	0.001430
 1566.15800	1.492007	0.001425
 1567.37900	1.492314	0.001420
 1568.59900	1.492620	0.001415
 1569.82000	1.492924	0.001410
 1571.04100	1.493228	0.001406
 1572.26200	1.493531	0.001401
 1573.48200	1.493833	0.001396
 1574.70300	1.494133	0.001391
 1575.92400	1.494433	0.001386
 1577.14400	1.494731	0.001382
 1578.36500	1.495028	0.001377
 1579.58600	1.495325	0.001372
 1580.80600	1.495620	0.001368
 1582.02700	1.495915	0.001363
 1583.24800	1.496208	0.001358
 1584.46900	1.496500	0.001354
 1585.68900	1.496791	0.001349
 1586.91000	1.497082	0.001345
 1588.13100	1.497371	0.001340
 1589.35100	1.497659	0.001336
 1590.57200	1.497947	0.001331
 1591.79300	1.498233	0.001327
 1593.01300	1.498518	0.001322
 1594.23400	1.498802	0.001318
 1595.45500	1.499086	0.001313
 1596.67600	1.499368	0.001309
 1597.89600	1.499650	0.001305
 1599.11700	1.499930	0.001300
 1600.33800	1.500210	0.001296
 1601.55800	1.500488	0.001292
 1602.77900	1.500766	0.001288
 1604.00000	1.501042	0.001283
 1605.22000	1.501318	0.001279
 1606.44100	1.501593	0.001275
 1607.66200	1.501867	0.001271
 1608.88300	1.502140	0.001266
 1610.10300	1.502412	0.001262
 1611.32400	1.502683	0.001258
 1612.54500	1.502953	0.001254
 1613.76500	1.503223	0.001250
 1614.98600	1.503491	0.001246
 1616.20700	1.503759	0.001242
 1617.42700	1.504025	0.001238
 1618.64800	1.504291	0.001234
 1619.86900	1.504556	0.001230
 1621.09000	1.504820	0.001226
 1622.31000	1.505083	0.001222
 1623.53100	1.505345	0.001218
 1624.75200	1.505607	0.001214
 1625.97200	1.505867	0.001210
 1627.19300	1.506127	0.001206
 1628.41400	1.506386	0.001203
 1629.63400	1.506644	0.001199
 1630.85500	1.506901	0.001195
 1632.07600	1.507157	0.001191
 1633.29700	1.507413	0.001187
 1634.51700	1.507668	0.001184
 1635.73800	1.507921	0.001180
 1636.95900	1.508174	0.001176
 1638.17900	1.508427	0.001172
 1639.40000	1.508678	0.001169
 1640.62100	1.508929	0.001165
 1641.84100	1.509178	0.001161
 1643.06200	1.509427	0.001158
 1644.28300	1.509675	0.001154
 1645.50400	1.509923	0.001150
 1646.72400	1.510169	0.001147
 1647.94500	1.510415	0.001143
 1649.16600	1.510660	0.001140
 1650.38600	1.510904	0.001136
 1651.60700	1.511147	0.001133
 1652.82800	1.511390	0.001129
 1654.04800	1.511632	0.001125
 1655.26900	1.511873	0.001122
 1656.49000	1.512114	0.001119
 1657.71100	1.512353	0.001115
 1658.93100	1.512592	0.001112
 1660.15200	1.512830	0.001108
 1661.37300	1.513067	0.001105
 1662.59300	1.513304	0.001101
 1663.81400	1.513540	0.001098
 1665.03500	1.513775	0.001095
 1666.25500	1.514009	0.001091
 1667.47600	1.514243	0.001088
 1668.69700	1.514476	0.001085
 1669.91800	1.514708	0.001081
 1671.13800	1.514939	0.001078
 1672.35900	1.515170	0.001075
 1673.58000	1.515400	0.001072
 1674.80000	1.515629	0.001068
 1676.02100	1.515858	0.001065
 1677.24200	1.516086	0.001062
 1678.46200	1.516313	0.001059
 1679.68300	1.516539	0.001055
 1680.90400	1.516765	0.001052
 1682.12500	1.516990	0.001049
 1683.34500	1.517215	0.001046
 1684.56600	1.517438	0.001043
 1685.78700	1.517661	0.001040
 1687.00700	1.517884	0.001037
 1688.22800	1.518105	0.001033
 1689.44900	1.518326	0.001030
 1690.66900	1.518546	0.001027
 1691.89000	1.518766	0.001024
 1693.11100	1.518985	0.001021
 1694.33200	1.519203	0.001018
 1695.55200	1.519421	0.001015
 1696.77300	1.519638	0.001012
 1697.99400	1.519854	0.001009
 1699.21400	1.520070	0.001006
 1700.43500	1.520285	0.001003
 1701.65600	1.520499	0.001000
 1702.87600	1.520713	0.000997
 1704.09700	1.520926	0.000994
 1705.31800	1.521139	0.000991
 1706.53900	1.521350	0.000989
 1707.75900	1.521562	0.000986
 1708.98000	1.521772	0.000983
 1710.20100	1.521982	0.000980
 1711.42100	1.522191	0.000977
 1712.64200	1.522400	0.000974
 1713.86300	1.522608	0.000972
 1715.08300	1.522815	0.000969
 1716.30400	1.523022	0.000966
 1717.52500	1.523228	0.000963
 1718.74600	1.523434	0.000960
 1719.96600	1.523639	0.000958
 1721.18700	1.523843	0.000955
 1722.40800	1.524047	0.000952
 1723.62800	1.524250	0.000949
 1724.84900	1.524453	0.000946
 1726.07000	1.524655	0.000944
 1727.29000	1.524856	0.000941
 1728.51100	1.525057	0.000938
 1729.73200	1.525257	0.000936
 1730.95300	1.525457	0.000933
 1732.17300	1.525656	0.000930
 1733.39400	1.525854	0.000928
 1734.61500	1.526052	0.000925
 1735.83500	1.526250	0.000922
 1737.05600	1.526446	0.000920
 1738.27700	1.526643	0.000917
 1739.49700	1.526838	0.000915
 1740.71800	1.527033	0.000912
 1741.93900	1.527228	0.000909
 1743.16000	1.527422	0.000907
 1744.38000	1.527615	0.000904
 1745.60100	1.527808	0.000902
 1746.82200	1.528000	0.000899
 1748.04200	1.528192	0.000897
 1749.26300	1.528383	0.000894
 1750.48400	1.528574	0.000892
 1751.70400	1.528764	0.000889
 1752.92500	1.528953	0.000887
 1754.14600	1.529142	0.000884
 1755.36700	1.529331	0.000882
 1756.58700	1.529519	0.000879
 1757.80800	1.529706	0.000877
 1759.02900	1.529893	0.000875
 1760.24900	1.530079	0.000872
 1761.47000	1.530265	0.000870
 1762.69100	1.530450	0.000867
 1763.91100	1.530635	0.000865
 1765.13200	1.530819	0.000862
 1766.35300	1.531003	0.000860
 1767.57400	1.531186	0.000858
 1768.79400	1.531369	0.000855
 1770.01500	1.531551	0.000853
 1771.23600	1.531733	0.000851
 1772.45600	1.531914	0.000848
 1773.67700	1.532095	0.000846
 1774.89800	1.532275	0.000844
 1776.11800	1.532454	0.000842
 1777.33900	1.532634	0.000839
 1778.56000	1.532812	0.000837
 1779.78100	1.532990	0.000835
 1781.00100	1.533168	0.000832
 1782.22200	1.533345	0.000830
 1783.44300	1.533522	0.000828
 1784.66300	1.533698	0.000826
 1785.88400	1.533874	0.000823
 1787.10500	1.534049	0.000821
 1788.32500	1.534224	0.000819
 1789.54600	1.534398	0.000817
 1790.76700	1.534572	0.000815
 1791.98800	1.534745	0.000812
 1793.20800	1.534918	0.000810
 1794.42900	1.535090	0.000808
 1795.65000	1.535262	0.000806
 1796.87000	1.535434	0.000804
 1798.09100	1.535604	0.000802
 1799.31200	1.535775	0.000799
 1800.53200	1.535945	0.000797
 1801.75300	1.536115	0.000795
 1802.97400	1.536284	0.000793
 1804.19500	1.536452	0.000791
 1805.41500	1.536620	0.000789
 1806.63600	1.536788	0.000787
 1807.85700	1.536955	0.000785
 1809.07700	1.537122	0.000783
 1810.29800	1.537289	0.000781
 1811.51900	1.537455	0.000778
 1812.73900	1.537620	0.000776
 1813.96000	1.537785	0.000774
 1815.18100	1.537950	0.000772
 1816.40200	1.538114	0.000770
 1817.62200	1.538278	0.000768
 1818.84300	1.538441	0.000766
 1820.06400	1.538604	0.000764
 1821.28400	1.538766	0.000762
 1822.50500	1.538928	0.000760
 1823.72600	1.539090	0.000758
 1824.94600	1.539251	0.000756
 1826.16700	1.539411	0.000754
 1827.38800	1.539572	0.000752
 1828.60900	1.539732	0.000751
 1829.82900	1.539891	0.000748
 1831.05000	1.540050	0.000747
 1832.27100	1.540209	0.000745
 1833.49100	1.540367	0.000743
 1834.71200	1.540524	0.000741
 1835.93300	1.540682	0.000739
 1837.15300	1.540839	0.000737
 1838.37400	1.540995	0.000735
 1839.59500	1.541151	0.000733
 1840.81600	1.541307	0.000731
 1842.03600	1.541462	0.000730
 1843.25700	1.541617	0.000728
 1844.47800	1.541772	0.000726
 1845.69800	1.541926	0.000724
 1846.91900	1.542079	0.000722
 1848.14000	1.542233	0.000720
 1849.36000	1.542385	0.000718
 1850.58100	1.542538	0.000716
 1851.80200	1.542690	0.000715
 1853.02300	1.542842	0.000713
 1854.24300	1.542993	0.000711
 1855.46400	1.543144	0.000709
 1856.68500	1.543294	0.000707
 1857.90500	1.543444	0.000706
 1859.12600	1.543594	0.000704
 1860.34700	1.543743	0.000702
 1861.56700	1.543892	0.000700
 1862.78800	1.544041	0.000699
 1864.00900	1.544189	0.000697
 1865.23000	1.544337	0.000695
 1866.45000	1.544484	0.000693
 1867.67100	1.544631	0.000692
 1868.89200	1.544778	0.000690
 1870.11200	1.544924	0.000688
 1871.33300	1.545071	0.000686
 1872.55400	1.545216	0.000685
 1873.77400	1.545361	0.000683
 1874.99500	1.545506	0.000681
 1876.21600	1.545650	0.000680
 1877.43700	1.545795	0.000678
 1878.65700	1.545938	0.000676
 1879.87800	1.546082	0.000675
 1881.09900	1.546225	0.000673
 1882.31900	1.546367	0.000671
 1883.54000	1.546510	0.000670
 1884.76100	1.546652	0.000668
 1885.98100	1.546793	0.000666
 1887.20200	1.546934	0.000665
 1888.42300	1.547075	0.000663
 1889.64400	1.547216	0.000661
 1890.86400	1.547356	0.000660
 1892.08500	1.547496	0.000658
 1893.30600	1.547635	0.000656
 1894.52600	1.547774	0.000655
 1895.74700	1.547913	0.000653
 1896.96800	1.548051	0.000652
 1898.18800	1.548190	0.000650
 1899.40900	1.548327	0.000648
 1900.63000	1.548465	0.000647
 1901.85100	1.548602	0.000645
 1903.07100	1.548738	0.000644
 1904.29200	1.548875	0.000642
 1905.51300	1.549011	0.000641
 1906.73300	1.549147	0.000639
 1907.95400	1.549282	0.000638
 1909.17500	1.549417	0.000636
 1910.39500	1.549552	0.000635
 1911.61600	1.549686	0.000633
 1912.83700	1.549820	0.000631
 1914.05800	1.549954	0.000630
 1915.27800	1.550087	0.000628
 1916.49900	1.550220	0.000627
 1917.72000	1.550353	0.000625
 1918.94000	1.550485	0.000624
 1920.16100	1.550617	0.000622
 1921.38200	1.550749	0.000621
 1922.60200	1.550880	0.000619
 1923.82300	1.551012	0.000618
 1925.04400	1.551142	0.000616
 1926.26500	1.551273	0.000615
 1927.48500	1.551403	0.000614
 1928.70600	1.551533	0.000612
 1929.92700	1.551662	0.000611
 1931.14700	1.551792	0.000609
 1932.36800	1.551921	0.000608
 1933.58900	1.552049	0.000606
 1934.80900	1.552177	0.000605
 1936.03000	1.552305	0.000603
 1937.25100	1.552433	0.000602
 1938.47200	1.552560	0.000600
 1939.69200	1.552687	0.000599
 1940.91300	1.552814	0.000598
 1942.13400	1.552941	0.000596
 1943.35400	1.553067	0.000595
 1944.57500	1.553192	0.000593
 1945.79600	1.553318	0.000592
 1947.01600	1.553443	0.000591
 1948.23700	1.553568	0.000589
 1949.45800	1.553693	0.000588
 1950.67900	1.553817	0.000586
 1951.89900	1.553941	0.000585
 1953.12000	1.554065	0.000584
 1954.34100	1.554188	0.000582
 1955.56100	1.554312	0.000581
 1956.78200	1.554435	0.000580
 1958.00300	1.554557	0.000578
 1959.22300	1.554679	0.000577
 1960.44400	1.554801	0.000576
 1961.66500	1.554923	0.000574
 1962.88600	1.555045	0.000573
 1964.10600	1.555166	0.000572
 1965.32700	1.555287	0.000570
 1966.54800	1.555407	0.000569
 1967.76800	1.555527	0.000568
 1968.98900	1.555647	0.000566
 1970.21000	1.555767	0.000565
 1971.43000	1.555887	0.000564
 1972.65100	1.556006	0.000562
 1973.87200	1.556125	0.000561
 1975.09300	1.556243	0.000560
 1976.31300	1.556362	0.000559
 1977.53400	1.556480	0.000557
 1978.75500	1.556597	0.000556
 1979.97500	1.556715	0.000555
 1981.19600	1.556832	0.000554
 1982.41700	1.556949	0.000552
 1983.63700	1.557066	0.000551
 1984.85800	1.557182	0.000550
 1986.07900	1.557298	0.000548
 1987.30000	1.557414	0.000547
 1988.52000	1.557530	0.000546
 1989.74100	1.557645	0.000545
 1990.96200	1.557760	0.000544
 1992.18200	1.557875	0.000542
 1993.40300	1.557990	0.000541
 1994.62400	1.558104	0.000540
 1995.84400	1.558218	0.000539
 1997.06500	1.558332	0.000537
 1998.28600	1.558445	0.000536
 1999.50700	1.558558	0.000535
 2000.72700	1.558671	0.000534
 2001.94800	1.558784	0.000533
 2003.16900	1.558897	0.000531
 2004.38900	1.559009	0.000530
 2005.61000	1.559121	0.000529
 2006.83100	1.559232	0.000528
 2008.05100	1.559344	0.000527
 2009.27200	1.559455	0.000525
 2010.49300	1.559566	0.000524
 2011.71400	1.559677	0.000523
 2012.93400	1.559787	0.000522
 2014.15500	1.559897	0.000521
 2015.37600	1.560007	0.000520
 2016.59600	1.560117	0.000518
 2017.81700	1.560226	0.000517
 2019.03800	1.560336	0.000516
 2020.25800	1.560445	0.000515
 2021.47900	1.560553	0.000514
 2022.70000	1.560662	0.000513
 2023.92100	1.560770	0.000512
 2025.14100	1.560878	0.000510
 2026.36200	1.560986	0.000509
 2027.58300	1.561093	0.000508
 2028.80300	1.561200	0.000507
 2030.02400	1.561307	0.000506
 2031.24500	1.561414	0.000505
 2032.46500	1.561521	0.000504
 2033.68600	1.561627	0.000503
 2034.90700	1.561733	0.000502
 2036.12800	1.561839	0.000501
 2037.34800	1.561944	0.000499
 2038.56900	1.562050	0.000498
 2039.79000	1.562155	0.000497
 2041.01000	1.562260	0.000496
 2042.23100	1.562364	0.000495
 2043.45200	1.562469	0.000494
 2044.67200	1.562573	0.000493
 2045.89300	1.562677	0.000492
 2047.11400	1.562781	0.000491
 2048.33500	1.562884	0.000490
 2049.55500	1.562987	0.000489
 2050.77600	1.563090	0.000487
 2051.99700	1.563193	0.000487
 2053.21700	1.563296	0.000485
 2054.43800	1.563398	0.000484
 2055.65900	1.563500	0.000483
 2056.87900	1.563602	0.000482
 2058.10000	1.563704	0.000481
 2059.32100	1.563805	0.000480
 2060.54200	1.563907	0.000479
 2061.76200	1.564008	0.000478
 2062.98300	1.564108	0.000477
 2064.20400	1.564209	0.000476
 2065.42400	1.564309	0.000475
 2066.64500	1.564409	0.000474
 2067.86600	1.564509	0.000473
 2069.08600	1.564609	0.000472
 2070.30700	1.564708	0.000471
 2071.52800	1.564808	0.000470
 2072.74900	1.564907	0.000469
 2073.96900	1.565006	0.000468
 2075.19000	1.565104	0.000467
 2076.41100	1.565203	0.000466
 2077.63100	1.565301	0.000465
 2078.85200	1.565399	0.000464
 2080.07300	1.565497	0.000463
 2081.29300	1.565594	0.000462
 2082.51400	1.565692	0.000461
 2083.73500	1.565789	0.000460
 2084.95600	1.565886	0.000459
 2086.17600	1.565982	0.000458
 2087.39700	1.566079	0.000457
 2088.61800	1.566175	0.000456
 2089.83800	1.566271	0.000455
 2091.05900	1.566367	0.000454
 2092.28000	1.566463	0.000453
 2093.50000	1.566558	0.000452
 2094.72100	1.566654	0.000451
 2095.94200	1.566749	0.000450
 2097.16300	1.566844	0.000449
 2098.38300	1.566938	0.000449
 2099.60400	1.567033	0.000448
 2100.82500	1.567127	0.000447
 2102.04500	1.567221	0.000446
 2103.26600	1.567315	0.000445
 2104.48700	1.567409	0.000444
 2105.70700	1.567502	0.000443
 2106.92800	1.567595	0.000442
 2108.14900	1.567688	0.000441
 2109.37000	1.567781	0.000440
 2110.59000	1.567874	0.000439
 2111.81100	1.567966	0.000438
 2113.03200	1.568059	0.000438
 2114.25200	1.568151	0.000437
 2115.47300	1.568243	0.000436
 2116.69400	1.568335	0.000435
 2117.91400	1.568426	0.000434
 2119.13500	1.568517	0.000433
 2120.35600	1.568609	0.000432
 2121.57700	1.568699	0.000431
 2122.79700	1.568790	0.000430
 2124.01800	1.568881	0.000429
 2125.23900	1.568971	0.000429
 2126.45900	1.569061	0.000428
 2127.68000	1.569151	0.000427
 2128.90100	1.569241	0.000426
 2130.12100	1.569331	0.000425
 2131.34200	1.569420	0.000424
 2132.56300	1.569510	0.000423
 2133.78400	1.569599	0.000422
 2135.00400	1.569687	0.000422
 2136.22500	1.569776	0.000421
 2137.44600	1.569865	0.000420
 2138.66600	1.569953	0.000419
 2139.88700	1.570041	0.000418
 2141.10800	1.570129	0.000417
 2142.32800	1.570217	0.000416
 2143.54900	1.570305	0.000415
 2144.77000	1.570392	0.000415
 2145.99100	1.570479	0.000414
 2147.21100	1.570566	0.000413
 2148.43200	1.570653	0.000412
 2149.65300	1.570740	0.000411
 2150.87300	1.570826	0.000411
 2152.09400	1.570913	0.000410
 2153.31500	1.570999	0.000409
 2154.53500	1.571085	0.000408
 2155.75600	1.571171	0.000407
 2156.97700	1.571256	0.000406
 2158.19800	1.571342	0.000406
 2159.41800	1.571427	0.000405
 2160.63900	1.571512	0.000404
 2161.86000	1.571597	0.000403
 2163.08000	1.571682	0.000402
 2164.30100	1.571766	0.000402
 2165.52200	1.571851	0.000401
 2166.74200	1.571935	0.000400
 2167.96300	1.572019	0.000399
 2169.18400	1.572103	0.000398
 2170.40500	1.572187	0.000397
 2171.62500	1.572270	0.000397
 2172.84600	1.572354	0.000396
 2174.06700	1.572437	0.000395
 2175.28700	1.572520	0.000394
 2176.50800	1.572603	0.000393
 2177.72900	1.572686	0.000393
 2178.94900	1.572768	0.000392
 2180.17000	1.572851	0.000391
 2181.39100	1.572933	0.000390
 2182.61200	1.573015	0.000390
 2183.83200	1.573097	0.000389
 2185.05300	1.573179	0.000388
 2186.27400	1.573260	0.000387
 2187.49400	1.573342	0.000387
 2188.71500	1.573423	0.000386
 2189.93600	1.573504	0.000385
 2191.15600	1.573585	0.000384
 2192.37700	1.573666	0.000384
 2193.59800	1.573746	0.000383
 2194.81900	1.573827	0.000382
 2196.03900	1.573907	0.000381
 2197.26000	1.573987	0.000380
 2198.48100	1.574067	0.000380
 2199.70100	1.574147	0.000379
 2200.92200	1.574226	0.000378
 2202.14300	1.574306	0.000377
 2203.36300	1.574385	0.000377
 2204.58400	1.574464	0.000376
 2205.80500	1.574543	0.000375
 2207.02600	1.574622	0.000375
 2208.24600	1.574701	0.000374
 2209.46700	1.574779	0.000373
 2210.68800	1.574858	0.000372
 2211.90800	1.574936	0.000372
 2213.12900	1.575014	0.000371
 2214.35000	1.575092	0.000370
 2215.57000	1.575170	0.000369
 2216.79100	1.575247	0.000369
 2218.01200	1.575325	0.000368
 2219.23300	1.575402	0.000367
 2220.45300	1.575479	0.000367
 2221.67400	1.575556	0.000366
 2222.89500	1.575633	0.000365
 2224.11500	1.575710	0.000365
 2225.33600	1.575786	0.000364
 2226.55700	1.575863	0.000363
 2227.77700	1.575939	0.000362
 2228.99800	1.576015	0.000362
 2230.21900	1.576091	0.000361
 2231.44000	1.576167	0.000360
 2232.66000	1.576243	0.000360
 2233.88100	1.576318	0.000359
 2235.10200	1.576393	0.000358
 2236.32200	1.576469	0.000357
 2237.54300	1.576544	0.000357
 2238.76400	1.576619	0.000356
 2239.98400	1.576693	0.000356
 2241.20500	1.576768	0.000355
 2242.42600	1.576843	0.000354
 2243.64700	1.576917	0.000354
 2244.86700	1.576991	0.000353
 2246.08800	1.577065	0.000352
 2247.30900	1.577139	0.000351
 2248.52900	1.577213	0.000351
 2249.75000	1.577286	0.000350
 2250.97100	1.577360	0.000349
 2252.19100	1.577433	0.000349
 2253.41200	1.577507	0.000348
 2254.63300	1.577580	0.000347
 2255.85400	1.577653	0.000347
 2257.07400	1.577725	0.000346
 2258.29500	1.577798	0.000346
 2259.51600	1.577870	0.000345
 2260.73600	1.577943	0.000344
 2261.95700	1.578015	0.000343
 2263.17800	1.578087	0.000343
 2264.39800	1.578159	0.000342
 2265.61900	1.578231	0.000342
 2266.84000	1.578303	0.000341
 2268.06100	1.578374	0.000340
 2269.28100	1.578446	0.000340
 2270.50200	1.578517	0.000339
 2271.72300	1.578588	0.000338
 2272.94300	1.578659	0.000338
 2274.16400	1.578730	0.000337
 2275.38500	1.578801	0.000337
 2276.60500	1.578871	0.000336
 2277.82600	1.578942	0.000335
 2279.04700	1.579012	0.000335
 2280.26800	1.579082	0.000334
 2281.48800	1.579152	0.000333
 2282.70900	1.579222	0.000333
 2283.93000	1.579292	0.000332
 2285.15000	1.579362	0.000331
 2286.37100	1.579431	0.000331
 2287.59200	1.579501	0.000330
 2288.81200	1.579570	0.000330
 2290.03300	1.579639	0.000329
 2291.25400	1.579708	0.000328
 2292.47500	1.579777	0.000328
 2293.69500	1.579846	0.000327
 2294.91600	1.579914	0.000327
 2296.13700	1.579983	0.000326
 2297.35700	1.580051	0.000325
 2298.57800	1.580119	0.000325
 2299.79900	1.580187	0.000324
 2301.01900	1.580255	0.000324
 2302.24000	1.580323	0.000323
 2303.46100	1.580391	0.000322
 2304.68200	1.580459	0.000322
 2305.90200	1.580526	0.000321
 2307.12300	1.580593	0.000321
 2308.34400	1.580661	0.000320
 2309.56400	1.580728	0.000319
 2310.78500	1.580795	0.000319
 2312.00600	1.580862	0.000318
 2313.22600	1.580928	0.000318
 2314.44700	1.580995	0.000317
 2315.66800	1.581061	0.000316
 2316.88900	1.581128	0.000316
 2318.10900	1.581194	0.000315
 2319.33000	1.581260	0.000315
 2320.55100	1.581326	0.000314
 2321.77100	1.581392	0.000314
 2322.99200	1.581458	0.000313
 2324.21300	1.581523	0.000312
 2325.43300	1.581589	0.000312
 2326.65400	1.581654	0.000311
 2327.87500	1.581720	0.000311
 2329.09600	1.581785	0.000310
 2330.31600	1.581850	0.000310
 2331.53700	1.581915	0.000309
 2332.75800	1.581979	0.000308
 2333.97800	1.582044	0.000308
 2335.19900	1.582109	0.000307
 2336.42000	1.582173	0.000307
 2337.64000	1.582237	0.000306
 2338.86100	1.582301	0.000306
 2340.08200	1.582366	0.000305
 2341.30300	1.582430	0.000305
 2342.52300	1.582493	0.000304
 2343.74400	1.582557	0.000304
 2344.96500	1.582621	0.000303
 2346.18500	1.582684	0.000303
 2347.40600	1.582748	0.000302
 2348.62700	1.582811	0.000301
 2349.84700	1.582874	0.000301
 2351.06800	1.582937	0.000300
 2352.28900	1.583000	0.000300
 2353.51000	1.583063	0.000299
 2354.73000	1.583125	0.000299
 2355.95100	1.583188	0.000298
 2357.17200	1.583251	0.000298
 2358.39200	1.583313	0.000297
 2359.61300	1.583375	0.000297
 2360.83400	1.583437	0.000296
 2362.05400	1.583499	0.000296
 2363.27500	1.583561	0.000295
 2364.49600	1.583623	0.000295
 2365.71700	1.583685	0.000294
 2366.93700	1.583746	0.000293
 2368.15800	1.583808	0.000293
 2369.37900	1.583869	0.000292
 2370.59900	1.583930	0.000292
 2371.82000	1.583991	0.000291
 2373.04100	1.584052	0.000291
 2374.26100	1.584113	0.000290
 2375.48200	1.584174	0.000290
 2376.70300	1.584235	0.000289
 2377.92400	1.584295	0.000289
 2379.14400	1.584356	0.000288
 2380.36500	1.584416	0.000288
 2381.58600	1.584476	0.000287
 2382.80600	1.584537	0.000287
 2384.02700	1.584597	0.000286
 2385.24800	1.584657	0.000286
 2386.46800	1.584717	0.000285
 2387.68900	1.584776	0.000285
 2388.91000	1.584836	0.000284
 2390.13100	1.584895	0.000284
 2391.35100	1.584955	0.000283
 2392.57200	1.585014	0.000283
 2393.79300	1.585073	0.000282
 2395.01300	1.585132	0.000282
 2396.23400	1.585191	0.000281
 2397.45500	1.585250	0.000281
 2398.67500	1.585309	0.000280
 2399.89600	1.585368	0.000280
 2401.11700	1.585426	0.000279
 2402.33800	1.585485	0.000279
 2403.55800	1.585543	0.000278
 2404.77900	1.585601	0.000278
 2406.00000	1.585660	0.000277
 2407.22000	1.585718	0.000277
 2408.44100	1.585775	0.000276
 2409.66200	1.585833	0.000276
 2410.88200	1.585891	0.000275
 2412.10300	1.585949	0.000275
 2413.32400	1.586006	0.000274
 2414.54500	1.586064	0.000274
 2415.76500	1.586121	0.000273
 2416.98600	1.586178	0.000273
 2418.20700	1.586236	0.000273
 2419.42700	1.586293	0.000272
 2420.64800	1.586349	0.000272
 2421.86900	1.586406	0.000271
 2423.08900	1.586463	0.000271
 2424.31000	1.586520	0.000270
 2425.53100	1.586576	0.000270
 2426.75200	1.586633	0.000269
 2427.97200	1.586689	0.000269
 2429.19300	1.586745	0.000268
 2430.41400	1.586802	0.000268
 2431.63400	1.586858	0.000267
 2432.85500	1.586914	0.000267
 2434.07600	1.586969	0.000266
 2435.29600	1.587025	0.000266
 2436.51700	1.587081	0.000266
 2437.73800	1.587136	0.000265
 2438.95900	1.587192	0.000265
 2440.17900	1.587247	0.000264
 2441.40000	1.587303	0.000264
 2442.62100	1.587358	0.000263
 2443.84100	1.587413	0.000263
 2445.06200	1.587468	0.000262
 2446.28300	1.587523	0.000262
 2447.50300	1.587578	0.000262
 2448.72400	1.587632	0.000261
 2449.94500	1.587687	0.000261
 2451.16600	1.587741	0.000260
 2452.38600	1.587796	0.000260
 2453.60700	1.587850	0.000259
 2454.82800	1.587905	0.000259
 2456.04800	1.587959	0.000258
 2457.26900	1.588013	0.000258
 2458.49000	1.588067	0.000258
 2459.71000	1.588121	0.000257
 2460.93100	1.588174	0.000257
 2462.15200	1.588228	0.000256
 2463.37300	1.588282	0.000256
 2464.59300	1.588335	0.000255
 2465.81400	1.588389	0.000255
 2467.03500	1.588442	0.000255
 2468.25500	1.588495	0.000254
 2469.47600	1.588548	0.000254
 2470.69700	1.588601	0.000253
 2471.91700	1.588655	0.000253
 2473.13800	1.588707	0.000252
 2474.35900	1.588760	0.000252
 2475.58000	1.588813	0.000252
 2476.80000	1.588866	0.000251
 2478.02100	1.588918	0.000251
 2479.24200	1.588970	0.000250
 2480.46200	1.589023	0.000250
 2481.68300	1.589075	0.000250
 2482.90400	1.589127	0.000249
 2484.12400	1.589179	0.000249
 2485.34500	1.589231	0.000248
 2486.56600	1.589283	0.000248
 2487.78700	1.589335	0.000247
 2489.00700	1.589387	0.000247
 2490.22800	1.589438	0.000247
 2491.44900	1.589490	0.000246
 2492.66900	1.589541	0.000246
 2493.89000	1.589593	0.000245
 2495.11100	1.589644	0.000245
 2496.33100	1.589695	0.000245
 2497.55200	1.589746	0.000244
 2498.77300	1.589797	0.000244
 2499.99400	1.589849	0.000243
 2501.21400	1.589899	0.000243
 2502.43500	1.589950	0.000242
 2503.65600	1.590001	0.000242
 2504.87600	1.590051	0.000242
 2506.09700	1.590102	0.000241
 2507.31800	1.590152	0.000241
 2508.53800	1.590203	0.000241
 2509.75900	1.590253	0.000240
 2510.98000	1.590303	0.000240
 2512.20100	1.590353	0.000239
 2513.42100	1.590403	0.000239
 2514.64200	1.590453	0.000239
 2515.86300	1.590503	0.000238
 2517.08300	1.590553	0.000238
 2518.30400	1.590603	0.000237
 2519.52500	1.590652	0.000237
 2520.74500	1.590702	0.000237
 2521.96600	1.590751	0.000236
 2523.18700	1.590801	0.000236
 2524.40800	1.590850	0.000236
 2525.62800	1.590899	0.000235
 2526.84900	1.590948	0.000235
 2528.07000	1.590997	0.000234
 2529.29000	1.591046	0.000234
 2530.51100	1.591095	0.000234
 2531.73200	1.591144	0.000233
 2532.95200	1.591193	0.000233
 2534.17300	1.591241	0.000232
 2535.39400	1.591290	0.000232
 2536.61500	1.591338	0.000232
 2537.83500	1.591387	0.000231
 2539.05600	1.591435	0.000231
 2540.27700	1.591483	0.000230
 2541.49700	1.591532	0.000230
 2542.71800	1.591580	0.000230
 2543.93900	1.591628	0.000229
 2545.15900	1.591676	0.000229
 2546.38000	1.591723	0.000229
 2547.60100	1.591771	0.000228
 2548.82200	1.591819	0.000228
 2550.04200	1.591866	0.000228
 2551.26300	1.591914	0.000227
 2552.48400	1.591962	0.000227
 2553.70400	1.592009	0.000226
 2554.92500	1.592056	0.000226
 2556.14600	1.592103	0.000226
 2557.36600	1.592151	0.000225
 2558.58700	1.592198	0.000225
 2559.80800	1.592245	0.000225
 2561.02900	1.592292	0.000224
 2562.24900	1.592338	0.000224
 2563.47000	1.592385	0.000224
 2564.69100	1.592432	0.000223
 2565.91100	1.592479	0.000223
 2567.13200	1.592525	0.000223
 2568.35300	1.592571	0.000222
 2569.57300	1.592618	0.000222
 2570.79400	1.592664	0.000221
 2572.01500	1.592710	0.000221
 2573.23600	1.592757	0.000221
 2574.45600	1.592803	0.000220
 2575.67700	1.592849	0.000220
 2576.89800	1.592895	0.000220
 2578.11800	1.592941	0.000219
 2579.33900	1.592986	0.000219
 2580.56000	1.593032	0.000219
 2581.78000	1.593078	0.000218
 2583.00100	1.593123	0.000218
 2584.22200	1.593169	0.000218
 2585.44300	1.593214	0.000217
 2586.66300	1.593260	0.000217
 2587.88400	1.593305	0.000217
 2589.10500	1.593350	0.000216
 2590.32500	1.593395	0.000216
 2591.54600	1.593440	0.000215
 2592.76700	1.593485	0.000215
 2593.98700	1.593530	0.000215
 2595.20800	1.593575	0.000215
 2596.42900	1.593620	0.000214
 2597.65000	1.593665	0.000214
 2598.87000	1.593709	0.000213
 2600.09100	1.593754	0.000213
 2601.31200	1.593798	0.000213
 2602.53200	1.593843	0.000213
 2603.75300	1.593887	0.000212
 2604.97400	1.593931	0.000212
 2606.19400	1.593976	0.000211
 2607.41500	1.594020	0.000211
 2608.63600	1.594064	0.000211
 2609.85700	1.594108	0.000211
 2611.07700	1.594152	0.000210
 2612.29800	1.594196	0.000210
 2613.51900	1.594240	0.000209
 2614.73900	1.594283	0.000209
 2615.96000	1.594327	0.000209
 2617.18100	1.594370	0.000209
 2618.40100	1.594414	0.000208
 2619.62200	1.594458	0.000208
 2620.84300	1.594501	0.000207
 2622.06400	1.594544	0.000207
 2623.28400	1.594587	0.000207
 2624.50500	1.594631	0.000207
 2625.72600	1.594674	0.000206
 2626.94600	1.594717	0.000206
 2628.16700	1.594760	0.000206
 2629.38800	1.594803	0.000205
 2630.60800	1.594846	0.000205
 2631.82900	1.594888	0.000205
 2633.05000	1.594931	0.000204
 2634.27100	1.594974	0.000204
 2635.49100	1.595016	0.000204
 2636.71200	1.595059	0.000203
 2637.93300	1.595101	0.000203
 2639.15300	1.595144	0.000203
 2640.37400	1.595186	0.000202
 2641.59500	1.595228	0.000202
 2642.81500	1.595270	0.000202
 2644.03600	1.595312	0.000202
 2645.25700	1.595355	0.000201
 2646.47800	1.595396	0.000201
 2647.69800	1.595438	0.000201
 2648.91900	1.595480	0.000200
 2650.14000	1.595522	0.000200
 2651.36000	1.595564	0.000200
 2652.58100	1.595605	0.000199
 2653.80200	1.595647	0.000199
 2655.02200	1.595688	0.000199
 2656.24300	1.595730	0.000198
 2657.46400	1.595771	0.000198
 2658.68500	1.595813	0.000198
 2659.90500	1.595854	0.000198
 2661.12600	1.595895	0.000197
 2662.34700	1.595936	0.000197
 2663.56700	1.595977	0.000197
 2664.78800	1.596018	0.000196
 2666.00900	1.596059	0.000196
 2667.22900	1.596100	0.000196
 2668.45000	1.596141	0.000195
 2669.67100	1.596182	0.000195
 2670.89200	1.596223	0.000195
 2672.11200	1.596263	0.000194
 2673.33300	1.596304	0.000194
 2674.55400	1.596344	0.000194
 2675.77400	1.596385	0.000194
 2676.99500	1.596425	0.000193
 2678.21600	1.596465	0.000193
 2679.43600	1.596506	0.000193
 2680.65700	1.596546	0.000192
 2681.87800	1.596586	0.000192
 2683.09900	1.596626	0.000192
 2684.31900	1.596666	0.000192
 2685.54000	1.596706	0.000191
 2686.76100	1.596746	0.000191
 2687.98100	1.596786	0.000191
 2689.20200	1.596826	0.000190
 2690.42300	1.596865	0.000190
 2691.64300	1.596905	0.000190
 2692.86400	1.596945	0.000190
 2694.08500	1.596984	0.000189
 2695.30600	1.597024	0.000189
 2696.52600	1.597063	0.000189
 2697.74700	1.597102	0.000188
 2698.96800	1.597142	0.000188
 2700.18800	1.597181	0.000188
 2701.40900	1.597220	0.000188
 2702.63000	1.597259	0.000187
 2703.85000	1.597298	0.000187
 2705.07100	1.597337	0.000187
 2706.29200	1.597376	0.000186
 2707.51300	1.597415	0.000186
 2708.73300	1.597454	0.000186
 2709.95400	1.597493	0.000186
 2711.17500	1.597532	0.000185
 2712.39500	1.597570	0.000185
 2713.61600	1.597609	0.000185
 2714.83700	1.597647	0.000184
 2716.05700	1.597686	0.000184
 2717.27800	1.597724	0.000184
 2718.49900	1.597762	0.000184
 2719.72000	1.597801	0.000183
 2720.94000	1.597839	0.000183
 2722.16100	1.597877	0.000183
 2723.38200	1.597915	0.000183
 2724.60200	1.597953	0.000182
 2725.82300	1.597991	0.000182
 2727.04400	1.598029	0.000182
 2728.26400	1.598067	0.000181
 2729.48500	1.598105	0.000181
 2730.70600	1.598143	0.000181
 2731.92700	1.598181	0.000181
 2733.14700	1.598218	0.000180
 2734.36800	1.598256	0.000180
 2735.58900	1.598294	0.000180
 2736.80900	1.598331	0.000180
 2738.03000	1.598368	0.000179
 2739.25100	1.598406	0.000179
 2740.47100	1.598443	0.000179
 2741.69200	1.598480	0.000179
 2742.91300	1.598518	0.000178
 2744.13400	1.598555	0.000178
 2745.35400	1.598592	0.000178
 2746.57500	1.598629	0.000177
 2747.79600	1.598666	0.000177
 2749.01600	1.598703	0.000177
 2750.23700	1.598740	0.000177
 2751.45800	1.598777	0.000177
 2752.67800	1.598814	0.000176
 2753.89900	1.598850	0.000176
 2755.12000	1.598887	0.000176
 2756.34100	1.598924	0.000175
 2757.56100	1.598960	0.000175
 2758.78200	1.598997	0.000175
 2760.00300	1.599033	0.000175
 2761.22300	1.599069	0.000174
 2762.44400	1.599106	0.000174
 2763.66500	1.599142	0.000174
 2764.88500	1.599178	0.000174
 2766.10600	1.599215	0.000173
 2767.32700	1.599251	0.000173
 2768.54800	1.599287	0.000173
 2769.76800	1.599323	0.000173
 2770.98900	1.599359	0.000172
 2772.21000	1.599395	0.000172
 2773.43000	1.599431	0.000172
 2774.65100	1.599466	0.000172
 2775.87200	1.599502	0.000171
 2777.09200	1.599538	0.000171
 2778.31300	1.599574	0.000171
 2779.53400	1.599609	0.000171
 2780.75500	1.599645	0.000170
 2781.97500	1.599680	0.000170
 2783.19600	1.599716	0.000170
 2784.41700	1.599751	0.000170
 2785.63700	1.599787	0.000169
 2786.85800	1.599822	0.000169
 2788.07900	1.599857	0.000169
 2789.29900	1.599892	0.000169
 2790.52000	1.599927	0.000168
 2791.74100	1.599962	0.000168
 2792.96200	1.599998	0.000168
 2794.18200	1.600033	0.000168
 2795.40300	1.600067	0.000167
 2796.62400	1.600102	0.000167
 2797.84400	1.600137	0.000167
 2799.06500	1.600172	0.000167
 2800.28600	1.600207	0.000167
 2801.50600	1.600241	0.000166
 2802.72700	1.600276	0.000166
 2803.94800	1.600311	0.000166
 2805.16900	1.600345	0.000166
 2806.38900	1.600380	0.000165
 2807.61000	1.600414	0.000165
 2808.83100	1.600448	0.000165
 2810.05100	1.600483	0.000165
 2811.27200	1.600517	0.000164
 2812.49300	1.600551	0.000164
 2813.71300	1.600586	0.000164
 2814.93400	1.600620	0.000164
 2816.15500	1.600654	0.000163
 2817.37600	1.600688	0.000163
 2818.59600	1.600722	0.000163
 2819.81700	1.600756	0.000163
 2821.03800	1.600790	0.000163
 2822.25800	1.600824	0.000162
 2823.47900	1.600857	0.000162
 2824.70000	1.600891	0.000162
 2825.92000	1.600925	0.000162
 2827.14100	1.600958	0.000161
 2828.36200	1.600992	0.000161
 2829.58300	1.601026	0.000161
 2830.80300	1.601059	0.000161
 2832.02400	1.601093	0.000160
 2833.24500	1.601126	0.000160
 2834.46500	1.601159	0.000160
 2835.68600	1.601193	0.000160
 2836.90700	1.601226	0.000160
 2838.12700	1.601259	0.000159
 2839.34800	1.601292	0.000159
 2840.56900	1.601326	0.000159
 2841.79000	1.601359	0.000159
 2843.01000	1.601392	0.000158
 2844.23100	1.601425	0.000158
 2845.45200	1.601458	0.000158
 2846.67200	1.601490	0.000158
 2847.89300	1.601523	0.000158
 2849.11400	1.601556	0.000157
 2850.33400	1.601589	0.000157
 2851.55500	1.601622	0.000157
 2852.77600	1.601654	0.000157
 2853.99700	1.601687	0.000156
 2855.21700	1.601719	0.000156
 2856.43800	1.601752	0.000156
 2857.65900	1.601784	0.000156
 2858.87900	1.601817	0.000156
 2860.10000	1.601849	0.000155
 2861.32100	1.601882	0.000155
 2862.54100	1.601914	0.000155
 2863.76200	1.601946	0.000155
 2864.98300	1.601978	0.000154
 2866.20400	1.602010	0.000154
 2867.42400	1.602043	0.000154
 2868.64500	1.602075	0.000154
 2869.86600	1.602107	0.000154
 2871.08600	1.602139	0.000153
 2872.30700	1.602171	0.000153
 2873.52800	1.602203	0.000153
 2874.74800	1.602234	0.000153
 2875.96900	1.602266	0.000152
 2877.19000	1.602298	0.000152
 2878.41100	1.602330	0.000152
 2879.63100	1.602361	0.000152
 2880.85200	1.602393	0.000152
 2882.07300	1.602425	0.000152
 2883.29300	1.602456	0.000151
 2884.51400	1.602488	0.000151
 2885.73500	1.602519	0.000151
 2886.95500	1.602550	0.000151
 2888.17600	1.602582	0.000150
 2889.39700	1.602613	0.000150
 2890.61800	1.602644	0.000150
 2891.83800	1.602675	0.000150
 2893.05900	1.602707	0.000150
 2894.28000	1.602738	0.000149
 2895.50000	1.602769	0.000149
 2896.72100	1.602800	0.000149
 2897.94200	1.602831	0.000149
 2899.16200	1.602862	0.000149
 2900.38300	1.602893	0.000148
 2901.60400	1.602924	0.000148
 2902.82500	1.602955	0.000148
 2904.04500	1.602985	0.000148
 2905.26600	1.603016	0.000148
 2906.48700	1.603047	0.000147
 2907.70700	1.603078	0.000147
 2908.92800	1.603108	0.000147
 2910.14900	1.603139	0.000147
 2911.36900	1.603169	0.000146
 2912.59000	1.603200	0.000146
 2913.81100	1.603230	0.000146
 2915.03200	1.603261	0.000146
 2916.25200	1.603291	0.000146
 2917.47300	1.603321	0.000146
 2918.69400	1.603352	0.000145
 2919.91400	1.603382	0.000145
 2921.13500	1.603412	0.000145
 2922.35600	1.603442	0.000145
 2923.57600	1.603472	0.000144
 2924.79700	1.603502	0.000144
 2926.01800	1.603532	0.000144
 2927.23900	1.603562	0.000144
 2928.45900	1.603592	0.000144
 2929.68000	1.603622	0.000144
 2930.90100	1.603652	0.000143
 2932.12100	1.603682	0.000143
 2933.34200	1.603712	0.000143
 2934.56300	1.603742	0.000143
 2935.78300	1.603771	0.000143
 2937.00400	1.603801	0.000142
 2938.22500	1.603830	0.000142
 2939.44600	1.603860	0.000142
 2940.66600	1.603890	0.000142
 2941.88700	1.603919	0.000142
 2943.10800	1.603949	0.000141
 2944.32800	1.603978	0.000141
 2945.54900	1.604007	0.000141
 2946.77000	1.604037	0.000141
 2947.99000	1.604066	0.000141
 2949.21100	1.604095	0.000140
 2950.43200	1.604125	0.000140
 2951.65300	1.604154	0.000140
 2952.87300	1.604183	0.000140
 2954.09400	1.604212	0.000140
 2955.31500	1.604241	0.000139
 2956.53500	1.604270	0.000139
 2957.75600	1.604299	0.000139
 2958.97700	1.604328	0.000139
 2960.19700	1.604357	0.000139
 2961.41800	1.604386	0.000139
 2962.63900	1.604415	0.000138
 2963.86000	1.604443	0.000138
 2965.08000	1.604472	0.000138
 2966.30100	1.604501	0.000138
 2967.52200	1.604530	0.000138
 2968.74200	1.604558	0.000137
 2969.96300	1.604587	0.000137
 2971.18400	1.604615	0.000137
 2972.40400	1.604644	0.000137
 2973.62500	1.604672	0.000137
 2974.84600	1.604701	0.000137
 2976.06700	1.604729	0.000136
 2977.28700	1.604758	0.000136
 2978.50800	1.604786	0.000136
 2979.72900	1.604814	0.000136
 2980.94900	1.604843	0.000136
 2982.17000	1.604871	0.000135
 2983.39100	1.604899	0.000135
 2984.61100	1.604927	0.000135
 2985.83200	1.604955	0.000135
 2987.05300	1.604983	0.000135
 2988.27400	1.605011	0.000135
 2989.49400	1.605039	0.000134
 2990.71500	1.605067	0.000134
 2991.93600	1.605095	0.000134
 2993.15600	1.605123	0.000134
 2994.37700	1.605151	0.000134
 2995.59800	1.605179	0.000133
 2996.81800	1.605206	0.000133
 2998.03900	1.605234	0.000133
 2999.26000	1.605262	0.000133
 3000.48100	1.605289	0.000133
 3001.70100	1.605317	0.000133
 3002.92200	1.605345	0.000132
 3004.14300	1.605372	0.000132
 3005.36300	1.605400	0.000132
 3006.58400	1.605427	0.000132
 3007.80500	1.605455	0.000132
 3009.02500	1.605482	0.000132
 3010.24600	1.605509	0.000131
 3011.46700	1.605537	0.000131
 3012.68800	1.605564	0.000131
 3013.90800	1.605591	0.000131
 3015.12900	1.605618	0.000131
 3016.35000	1.605646	0.000131
 3017.57000	1.605673	0.000130
 3018.79100	1.605700	0.000130
 3020.01200	1.605727	0.000130
 3021.23200	1.605754	0.000130
 3022.45300	1.605781	0.000130
 3023.67400	1.605808	0.000129
 3024.89500	1.605835	0.000129
 3026.11500	1.605862	0.000129
 3027.33600	1.605889	0.000129
 3028.55700	1.605915	0.000129
 3029.77700	1.605942	0.000129
 3030.99800	1.605969	0.000129
 3032.21900	1.605996	0.000128
 3033.43900	1.606022	0.000128
 3034.66000	1.606049	0.000128
 3035.88100	1.606076	0.000128
 3037.10200	1.606102	0.000128
 3038.32200	1.606129	0.000127
 3039.54300	1.606155	0.000127
 3040.76400	1.606182	0.000127
 3041.98400	1.606208	0.000127
 3043.20500	1.606235	0.000127
 3044.42600	1.606261	0.000127
 3045.64600	1.606287	0.000127
 3046.86700	1.606313	0.000126
 3048.08800	1.606340	0.000126
 3049.30900	1.606366	0.000126
 3050.52900	1.606392	0.000126
 3051.75000	1.606418	0.000126
 3052.97100	1.606444	0.000125
 3054.19100	1.606471	0.000125
 3055.41200	1.606497	0.000125
 3056.63300	1.606523	0.000125
 3057.85300	1.606549	0.000125
 3059.07400	1.606575	0.000125
 3060.29500	1.606601	0.000125
 3061.51600	1.606626	0.000124
 3062.73600	1.606652	0.000124
 3063.95700	1.606678	0.000124
 3065.17800	1.606704	0.000124
 3066.39800	1.606730	0.000124
 3067.61900	1.606755	0.000124
 3068.84000	1.606781	0.000123
 3070.06000	1.606807	0.000123
 3071.28100	1.606832	0.000123
 3072.50200	1.606858	0.000123
 3073.72300	1.606884	0.000123
 3074.94300	1.606909	0.000123
 3076.16400	1.606935	0.000123
 3077.38500	1.606960	0.000122
 3078.60500	1.606985	0.000122
 3079.82600	1.607011	0.000122
 3081.04700	1.607036	0.000122
 3082.26700	1.607062	0.000122
 3083.48800	1.607087	0.000122
 3084.70900	1.607112	0.000121
 3085.93000	1.607137	0.000121
 3087.15000	1.607162	0.000121
 3088.37100	1.607188	0.000121
 3089.59200	1.607213	0.000121
 3090.81200	1.607238	0.000121
 3092.03300	1.607263	0.000120
 3093.25400	1.607288	0.000120
 3094.47400	1.607313	0.000120
 3095.69500	1.607338	0.000120
 3096.91600	1.607363	0.000120
 3098.13700	1.607388	0.000120
 3099.35700	1.607413	0.000120
 3100.57800	1.607437	0.000119
 3101.79900	1.607462	0.000119
 3103.01900	1.607487	0.000119
 3104.24000	1.607512	0.000119
 3105.46100	1.607536	0.000119
 3106.68100	1.607561	0.000119
 3107.90200	1.607586	0.000119
 3109.12300	1.607610	0.000118
 3110.34400	1.607635	0.000118
 3111.56400	1.607660	0.000118
 3112.78500	1.607684	0.000118
 3114.00600	1.607709	0.000118
 3115.22600	1.607733	0.000118
 3116.44700	1.607757	0.000117
 3117.66800	1.607782	0.000117
 3118.88800	1.607806	0.000117
 3120.10900	1.607831	0.000117
 3121.33000	1.607855	0.000117
 3122.55100	1.607879	0.000117
 3123.77100	1.607903	0.000116
 3124.99200	1.607928	0.000116
 3126.21300	1.607952	0.000116
 3127.43300	1.607976	0.000116
 3128.65400	1.608000	0.000116
 3129.87500	1.608024	0.000116
 3131.09500	1.608048	0.000116
 3132.31600	1.608072	0.000115
 3133.53700	1.608096	0.000115
 3134.75800	1.608120	0.000115
 3135.97800	1.608144	0.000115
 3137.19900	1.608168	0.000115
 3138.42000	1.608192	0.000115
 3139.64000	1.608216	0.000115
 3140.86100	1.608240	0.000114
 3142.08200	1.608263	0.000114
 3143.30200	1.608287	0.000114
 3144.52300	1.608311	0.000114
 3145.74400	1.608335	0.000114
 3146.96500	1.608358	0.000114
 3148.18500	1.608382	0.000114
 3149.40600	1.608405	0.000113
 3150.62700	1.608429	0.000113
 3151.84700	1.608453	0.000113
 3153.06800	1.608476	0.000113
 3154.28900	1.608500	0.000113
 3155.50900	1.608523	0.000113
 3156.73000	1.608546	0.000113
 3157.95100	1.608570	0.000112
 3159.17200	1.608593	0.000112
 3160.39200	1.608617	0.000112
 3161.61300	1.608640	0.000112
 3162.83400	1.608663	0.000112
 3164.05400	1.608686	0.000112
 3165.27500	1.608710	0.000112
 3166.49600	1.608733	0.000111
 3167.71600	1.608756	0.000111
 3168.93700	1.608779	0.000111
 3170.15800	1.608802	0.000111
 3171.37900	1.608825	0.000111
 3172.59900	1.608848	0.000111
 3173.82000	1.608871	0.000111
 3175.04100	1.608894	0.000110
 3176.26100	1.608917	0.000110
 3177.48200	1.608940	0.000110
 3178.70300	1.608963	0.000110
 3179.92300	1.608986	0.000110
 3181.14400	1.609009	0.000110
 3182.36500	1.609032	0.000110
 3183.58600	1.609055	0.000110
 3184.80600	1.609077	0.000109
 3186.02700	1.609100	0.000109
 3187.24800	1.609123	0.000109
 3188.46800	1.609145	0.000109
 3189.68900	1.609168	0.000109
 3190.91000	1.609191	0.000109
 3192.13000	1.609213	0.000109
 3193.35100	1.609236	0.000108
 3194.57200	1.609258	0.000108
 3195.79300	1.609281	0.000108
 3197.01300	1.609303	0.000108
 3198.23400	1.609326	0.000108
 3199.45500	1.609348	0.000108
 3200.67500	1.609371	0.000108
 3201.89600	1.609393	0.000108
 3203.11700	1.609415	0.000107
 3204.33700	1.609438	0.000107
 3205.55800	1.609460	0.000107
 3206.77900	1.609482	0.000107
 3208.00000	1.609505	0.000107
 3209.22000	1.609527	0.000107
 3210.44100	1.609549	0.000107
 3211.66200	1.609571	0.000107
 3212.88200	1.609593	0.000106
 3214.10300	1.609615	0.000106
 3215.32400	1.609637	0.000106
 3216.54400	1.609659	0.000106
 3217.76500	1.609681	0.000106
 3218.98600	1.609703	0.000106
 3220.20700	1.609725	0.000106
 3221.42700	1.609747	0.000106
 3222.64800	1.609769	0.000105
 3223.86900	1.609791	0.000105
 3225.08900	1.609813	0.000105
 3226.31000	1.609835	0.000105
 3227.53100	1.609857	0.000105
 3228.75100	1.609878	0.000105
 3229.97200	1.609900	0.000105
 3231.19300	1.609922	0.000105
 3232.41400	1.609944	0.000104
 3233.63400	1.609965	0.000104
 3234.85500	1.609987	0.000104
 3236.07600	1.610008	0.000104
 3237.29600	1.610030	0.000104
 3238.51700	1.610052	0.000104
 3239.73800	1.610073	0.000104
 3240.95800	1.610095	0.000104
 3242.17900	1.610116	0.000103
 3243.40000	1.610138	0.000103
 3244.62100	1.610159	0.000103
 3245.84100	1.610180	0.000103
 3247.06200	1.610202	0.000103
 3248.28300	1.610223	0.000103
 3249.50300	1.610245	0.000103
 3250.72400	1.610266	0.000103
 3251.94500	1.610287	0.000102
 3253.16500	1.610308	0.000102
 3254.38600	1.610330	0.000102
 3255.60700	1.610351	0.000102
 3256.82800	1.610372	0.000102
 3258.04800	1.610393	0.000102
 3259.26900	1.610414	0.000102
 3260.49000	1.610435	0.000102
 3261.71000	1.610456	0.000101
 3262.93100	1.610477	0.000101
 3264.15200	1.610498	0.000101
 3265.37200	1.610519	0.000101
 3266.59300	1.610540	0.000101
 3267.81400	1.610561	0.000101
 3269.03500	1.610582	0.000101
 3270.25500	1.610603	0.000101
 3271.47600	1.610624	0.000100
 3272.69700	1.610645	0.000100
 3273.91700	1.610666	0.000100
 3275.13800	1.610687	0.000100
 3276.35900	1.610707	0.000100
 3277.57900	1.610728	0.000100
 3278.80000	1.610749	0.000100
 3280.02100	1.610769	0.000100
 3281.24200	1.610790	0.000099
 3282.46200	1.610811	0.000099
 3283.68300	1.610831	0.000099
 3284.90400	1.610852	0.000099
 3286.12400	1.610873	0.000099
 3287.34500	1.610893	0.000099
 3288.56600	1.610914	0.000099
 3289.78600	1.610934	0.000099
 3291.00700	1.610955	0.000099
 3292.22800	1.610975	0.000098
 3293.44900	1.610995	0.000098
 3294.66900	1.611016	0.000098
 3295.89000	1.611036	0.000098
 3297.11100	1.611057	0.000098
 3298.33100	1.611077	0.000098
 3299.55200	1.611097	0.000098
 3300.77300	1.611117	0.000098
 3301.99300	1.611138	0.000097
 3303.21400	1.611158	0.000097
 3304.43500	1.611178	0.000097
 3305.65600	1.611198	0.000097
 3306.87600	1.611218	0.000097
 3308.09700	1.611239	0.000097
 3309.31800	1.611259	0.000097
 3310.53800	1.611279	0.000097
 3311.75900	1.611299	0.000096
 3312.98000	1.611319	0.000096
 3314.20000	1.611339	0.000096
 3315.42100	1.611359	0.000096
 3316.64200	1.611379	0.000096
 3317.86300	1.611399	0.000096
 3319.08300	1.611419	0.000096
 3320.30400	1.611439	0.000096
 3321.52500	1.611458	0.000096
 3322.74500	1.611478	0.000095
 3323.96600	1.611498	0.000095
 3325.18700	1.611518	0.000095
 3326.40700	1.611538	0.000095
 3327.62800	1.611557	0.000095
 3328.84900	1.611577	0.000095
 3330.07000	1.611597	0.000095
 3331.29000	1.611617	0.000095
 3332.51100	1.611636	0.000095
 3333.73200	1.611656	0.000094
 3334.95200	1.611676	0.000094
 3336.17300	1.611695	0.000094
 3337.39400	1.611715	0.000094
 3338.61400	1.611734	0.000094
 3339.83500	1.611754	0.000094
 3341.05600	1.611773	0.000094
 3342.27700	1.611793	0.000094
 3343.49700	1.611812	0.000094
 3344.71800	1.611832	0.000093
 3345.93900	1.611851	0.000093
 3347.15900	1.611870	0.000093
 3348.38000	1.611890	0.000093
 3349.60100	1.611909	0.000093
 3350.82100	1.611928	0.000093
 3352.04200	1.611948	0.000093
 3353.26300	1.611967	0.000093
 3354.48400	1.611986	0.000093
 3355.70400	1.612005	0.000092
 3356.92500	1.612025	0.000092
 3358.14600	1.612044	0.000092
 3359.36600	1.612063	0.000092
 3360.58700	1.612082	0.000092
 3361.80800	1.612101	0.000092
 3363.02800	1.612120	0.000092
 3364.24900	1.612139	0.000092
 3365.47000	1.612158	0.000092
 3366.69100	1.612177	0.000092
 3367.91100	1.612197	0.000091
 3369.13200	1.612215	0.000091
 3370.35300	1.612234	0.000091
 3371.57300	1.612253	0.000091
 3372.79400	1.612272	0.000091
 3374.01500	1.612291	0.000091
 3375.23500	1.612310	0.000091
 3376.45600	1.612329	0.000091
 3377.67700	1.612348	0.000091
 3378.89800	1.612367	0.000090
 3380.11800	1.612385	0.000090
 3381.33900	1.612404	0.000090
 3382.56000	1.612423	0.000090
 3383.78000	1.612442	0.000090
 3385.00100	1.612460	0.000090
 3386.22200	1.612479	0.000090
 3387.44200	1.612498	0.000090
 3388.66300	1.612516	0.000090
 3389.88400	1.612535	0.000090
 3391.10500	1.612553	0.000089
 3392.32500	1.612572	0.000089
 3393.54600	1.612591	0.000089
 3394.76700	1.612609	0.000089
 3395.98700	1.612628	0.000089
 3397.20800	1.612646	0.000089
 3398.42900	1.612664	0.000089
 3399.64900	1.612683	0.000089
 3400.87000	1.612701	0.000089
 3402.09100	1.612720	0.000089
 3403.31200	1.612738	0.000088
 3404.53200	1.612756	0.000088
 3405.75300	1.612775	0.000088
 3406.97400	1.612793	0.000088
 3408.19400	1.612811	0.000088
 3409.41500	1.612830	0.000088
 3410.63600	1.612848	0.000088
 3411.85600	1.612866	0.000088
 3413.07700	1.612884	0.000088
 3414.29800	1.612903	0.000088
 3415.51900	1.612921	0.000087
 3416.73900	1.612939	0.000087
 3417.96000	1.612957	0.000087
 3419.18100	1.612975	0.000087
 3420.40100	1.612993	0.000087
 3421.62200	1.613011	0.000087
 3422.84300	1.613029	0.000087
 3424.06300	1.613047	0.000087
 3425.28400	1.613065	0.000087
 3426.50500	1.613083	0.000087
 3427.72600	1.613101	0.000086
 3428.94600	1.613119	0.000086
 3430.16700	1.613137	0.000086
 3431.38800	1.613155	0.000086
 3432.60800	1.613173	0.000086
 3433.82900	1.613191	0.000086
 3435.05000	1.613208	0.000086
 3436.27000	1.613226	0.000086
 3437.49100	1.613244	0.000086
 3438.71200	1.613262	0.000086
 3439.93300	1.613280	0.000086
 3441.15300	1.613297	0.000085
 3442.37400	1.613315	0.000085
 3443.59500	1.613333	0.000085
 3444.81500	1.613351	0.000085
 3446.03600	1.613368	0.000085
 3447.25700	1.613386	0.000085
 3448.47700	1.613403	0.000085
 3449.69800	1.613421	0.000085
 3450.91900	1.613438	0.000085
 3452.14000	1.613456	0.000085
 3453.36000	1.613474	0.000084
 3454.58100	1.613491	0.000084
 3455.80200	1.613509	0.000084
 3457.02200	1.613526	0.000084
 3458.24300	1.613544	0.000084
 3459.46400	1.613561	0.000084
 3460.68400	1.613578	0.000084
 3461.90500	1.613596	0.000084
 3463.12600	1.613613	0.000084
 3464.34700	1.613631	0.000084
 3465.56700	1.613648	0.000084
 3466.78800	1.613665	0.000083
 3468.00900	1.613683	0.000083
 3469.22900	1.613700	0.000083
 3470.45000	1.613717	0.000083
 3471.67100	1.613734	0.000083
 3472.89100	1.613752	0.000083
 3474.11200	1.613769	0.000083
 3475.33300	1.613786	0.000083
 3476.55400	1.613803	0.000083
 3477.77400	1.613820	0.000083
 3478.99500	1.613837	0.000083
 3480.21600	1.613854	0.000082
 3481.43600	1.613871	0.000082
 3482.65700	1.613889	0.000082
 3483.87800	1.613906	0.000082
 3485.09800	1.613923	0.000082
 3486.31900	1.613940	0.000082
 3487.54000	1.613957	0.000082
 3488.76100	1.613973	0.000082
 3489.98100	1.613991	0.000082
 3491.20200	1.614007	0.000082
 3492.42300	1.614024	0.000082
 3493.64300	1.614041	0.000081
 3494.86400	1.614058	0.000081
 3496.08500	1.614075	0.000081
 3497.30500	1.614092	0.000081
 3498.52600	1.614109	0.000081
 3499.74700	1.614125	0.000081
 3500.96800	1.614142	0.000081
 3502.18800	1.614159	0.000081
 3503.40900	1.614176	0.000081
 3504.63000	1.614192	0.000081
 3505.85000	1.614209	0.000081
 3507.07100	1.614226	0.000080
 3508.29200	1.614243	0.000080
 3509.51200	1.614259	0.000080
 3510.73300	1.614276	0.000080
 3511.95400	1.614293	0.000080
 3513.17500	1.614309	0.000080
 3514.39500	1.614326	0.000080
 3515.61600	1.614342	0.000080
 3516.83700	1.614359	0.000080
 3518.05700	1.614375	0.000080
 3519.27800	1.614392	0.000080
 3520.49900	1.614408	0.000079
 3521.71900	1.614425	0.000079
 3522.94000	1.614441	0.000079
 3524.16100	1.614458	0.000079
 3525.38200	1.614474	0.000079
 3526.60200	1.614490	0.000079
 3527.82300	1.614507	0.000079
 3529.04400	1.614523	0.000079
 3530.26400	1.614540	0.000079
 3531.48500	1.614556	0.000079
 3532.70600	1.614572	0.000079
 3533.92600	1.614588	0.000079
 3535.14700	1.614605	0.000078
 3536.36800	1.614621	0.000078
 3537.58900	1.614637	0.000078
 3538.80900	1.614653	0.000078
 3540.03000	1.614670	0.000078
 3541.25100	1.614686	0.000078
 3542.47100	1.614702	0.000078
 3543.69200	1.614718	0.000078
 3544.91300	1.614734	0.000078
 3546.13300	1.614750	0.000078
 3547.35400	1.614766	0.000078
 3548.57500	1.614782	0.000077
 3549.79600	1.614798	0.000077
 3551.01600	1.614815	0.000077
 3552.23700	1.614830	0.000077
 3553.45800	1.614846	0.000077
 3554.67800	1.614863	0.000077
 3555.89900	1.614878	0.000077
 3557.12000	1.614894	0.000077
 3558.34000	1.614910	0.000077
 3559.56100	1.614926	0.000077
 3560.78200	1.614942	0.000077
 3562.00300	1.614958	0.000077
 3563.22300	1.614974	0.000076
 3564.44400	1.614990	0.000076
 3565.66500	1.615006	0.000076
 3566.88500	1.615021	0.000076
 3568.10600	1.615037	0.000076
 3569.32700	1.615053	0.000076
 3570.54700	1.615069	0.000076
 3571.76800	1.615085	0.000076
 3572.98900	1.615100	0.000076
 3574.21000	1.615116	0.000076
 3575.43000	1.615132	0.000076
 3576.65100	1.615147	0.000076
 3577.87200	1.615163	0.000075
 3579.09200	1.615179	0.000075
 3580.31300	1.615194	0.000075
 3581.53400	1.615210	0.000075
 3582.75400	1.615225	0.000075
 3583.97500	1.615241	0.000075
 3585.19600	1.615257	0.000075
 3586.41700	1.615272	0.000075
 3587.63700	1.615288	0.000075
 3588.85800	1.615303	0.000075
 3590.07900	1.615319	0.000075
 3591.29900	1.615334	0.000075
 3592.52000	1.615350	0.000074
 3593.74100	1.615365	0.000074
 3594.96100	1.615380	0.000074
 3596.18200	1.615396	0.000074
 3597.40300	1.615411	0.000074
 3598.62400	1.615426	0.000074
 3599.84400	1.615442	0.000074
 3601.06500	1.615457	0.000074
 3602.28600	1.615473	0.000074
 3603.50600	1.615488	0.000074
 3604.72700	1.615503	0.000074
 3605.94800	1.615518	0.000074
 3607.16800	1.615534	0.000073
 3608.38900	1.615549	0.000073
 3609.61000	1.615564	0.000073
 3610.83100	1.615579	0.000073
 3612.05100	1.615595	0.000073
 3613.27200	1.615610	0.000073
 3614.49300	1.615625	0.000073
 3615.71300	1.615640	0.000073
 3616.93400	1.615655	0.000073
 3618.15500	1.615670	0.000073
 3619.37500	1.615685	0.000073
 3620.59600	1.615700	0.000073
 3621.81700	1.615715	0.000073
 3623.03800	1.615730	0.000072
 3624.25800	1.615745	0.000072
 3625.47900	1.615761	0.000072
 3626.70000	1.615775	0.000072
 3627.92000	1.615790	0.000072
 3629.14100	1.615805	0.000072
 3630.36200	1.615820	0.000072
 3631.58200	1.615835	0.000072
 3632.80300	1.615850	0.000072
 3634.02400	1.615865	0.000072
 3635.24500	1.615880	0.000072
 3636.46500	1.615895	0.000072
 3637.68600	1.615910	0.000072
 3638.90700	1.615924	0.000071
 3640.12700	1.615939	0.000071
 3641.34800	1.615954	0.000071
 3642.56900	1.615969	0.000071
 3643.78900	1.615984	0.000071
 3645.01000	1.615999	0.000071
 3646.23100	1.616013	0.000071
 3647.45200	1.616028	0.000071
 3648.67200	1.616043	0.000071
 3649.89300	1.616057	0.000071
 3651.11400	1.616072	0.000071
 3652.33400	1.616087	0.000071
 3653.55500	1.616101	0.000071
 3654.77600	1.616116	0.000070
 3655.99600	1.616131	0.000070
 3657.21700	1.616145	0.000070
 3658.43800	1.616160	0.000070
 3659.65900	1.616174	0.000070
 3660.87900	1.616189	0.000070
 3662.10000	1.616203	0.000070
 3663.32100	1.616218	0.000070
 3664.54100	1.616233	0.000070
 3665.76200	1.616247	0.000070
 3666.98300	1.616261	0.000070
 3668.20300	1.616276	0.000070
 3669.42400	1.616290	0.000070
 3670.64500	1.616305	0.000070
 3671.86600	1.616319	0.000069
 3673.08600	1.616333	0.000069
 3674.30700	1.616348	0.000069
 3675.52800	1.616362	0.000069
 3676.74800	1.616377	0.000069
 3677.96900	1.616391	0.000069
 3679.19000	1.616405	0.000069
 3680.41000	1.616420	0.000069
 3681.63100	1.616434	0.000069
 3682.85200	1.616448	0.000069
 3684.07300	1.616462	0.000069
 3685.29300	1.616477	0.000069
 3686.51400	1.616491	0.000069
 3687.73500	1.616505	0.000068
 3688.95500	1.616519	0.000068
 3690.17600	1.616534	0.000068
 3691.39700	1.616548	0.000068
 3692.61700	1.616562	0.000068
 3693.83800	1.616576	0.000068
 3695.05900	1.616590	0.000068
 3696.28000	1.616604	0.000068
 3697.50000	1.616618	0.000068
 3698.72100	1.616632	0.000068
 3699.94200	1.616647	0.000068
 3701.16200	1.616661	0.000068
 3702.38300	1.616675	0.000068
 3703.60400	1.616689	0.000068
 3704.82400	1.616703	0.000068
 3706.04500	1.616717	0.000067
 3707.26600	1.616731	0.000067
 3708.48700	1.616745	0.000067
 3709.70700	1.616759	0.000067
 3710.92800	1.616773	0.000067
 3712.14900	1.616786	0.000067
 3713.36900	1.616800	0.000067
 3714.59000	1.616814	0.000067
 3715.81100	1.616828	0.000067
 3717.03100	1.616842	0.000067
 3718.25200	1.616856	0.000067
 3719.47300	1.616870	0.000067
 3720.69400	1.616884	0.000067
 3721.91400	1.616897	0.000067
 3723.13500	1.616911	0.000066
 3724.35600	1.616925	0.000066
 3725.57600	1.616939	0.000066
 3726.79700	1.616952	0.000066
 3728.01800	1.616966	0.000066
 3729.23800	1.616980	0.000066
 3730.45900	1.616994	0.000066
 3731.68000	1.617007	0.000066
 3732.90100	1.617021	0.000066
 3734.12100	1.617035	0.000066
 3735.34200	1.617048	0.000066
 3736.56300	1.617062	0.000066
 3737.78300	1.617076	0.000066
 3739.00400	1.617089	0.000066
 3740.22500	1.617103	0.000066
 3741.44500	1.617116	0.000065
 3742.66600	1.617130	0.000065
 3743.88700	1.617143	0.000065
 3745.10800	1.617157	0.000065
 3746.32800	1.617170	0.000065
 3747.54900	1.617184	0.000065
 3748.77000	1.617198	0.000065
 3749.99000	1.617211	0.000065
 3751.21100	1.617224	0.000065
 3752.43200	1.617238	0.000065
 3753.65200	1.617251	0.000065
 3754.87300	1.617265	0.000065
 3756.09400	1.617278	0.000065
 3757.31500	1.617292	0.000065
 3758.53500	1.617305	0.000065
 3759.75600	1.617318	0.000064
 3760.97700	1.617332	0.000064
 3762.19700	1.617345	0.000064
 3763.41800	1.617358	0.000064
 3764.63900	1.617372	0.000064
 3765.85900	1.617385	0.000064
 3767.08000	1.617398	0.000064
 3768.30100	1.617412	0.000064
 3769.52200	1.617425	0.000064
 3770.74200	1.617438	0.000064
 3771.96300	1.617451	0.000064
 3773.18400	1.617465	0.000064
 3774.40400	1.617478	0.000064
 3775.62500	1.617491	0.000064
 3776.84600	1.617504	0.000064
 3778.06600	1.617517	0.000064
 3779.28700	1.617530	0.000063
 3780.50800	1.617544	0.000063
 3781.72900	1.617557	0.000063
 3782.94900	1.617570	0.000063
 3784.17000	1.617583	0.000063
 3785.39100	1.617596	0.000063
 3786.61100	1.617609	0.000063
 3787.83200	1.617622	0.000063
 3789.05300	1.617635	0.000063
 3790.27300	1.617648	0.000063
 3791.49400	1.617661	0.000063
 3792.71500	1.617674	0.000063
 3793.93600	1.617687	0.000063
 3795.15600	1.617700	0.000063
 3796.37700	1.617713	0.000063
 3797.59800	1.617726	0.000063
 3798.81800	1.617739	0.000062
 3800.03900	1.617752	0.000062
 3801.26000	1.617765	0.000062
 3802.48000	1.617778	0.000062
 3803.70100	1.617791	0.000062
 3804.92200	1.617804	0.000062
 3806.14300	1.617816	0.000062
 3807.36300	1.617829	0.000062
 3808.58400	1.617842	0.000062
 3809.80500	1.617855	0.000062
 3811.02500	1.617868	0.000062
 3812.24600	1.617881	0.000062
 3813.46700	1.617893	0.000062
 3814.68700	1.617906	0.000062
 3815.90800	1.617919	0.000062
 3817.12900	1.617932	0.000062
 3818.35000	1.617944	0.000061
 3819.57000	1.617957	0.000061
 3820.79100	1.617970	0.000061
 3822.01200	1.617983	0.000061
 3823.23200	1.617995	0.000061
 3824.45300	1.618008	0.000061
 3825.67400	1.618021	0.000061
 3826.89400	1.618033	0.000061
 3828.11500	1.618046	0.000061
 3829.33600	1.618058	0.000061
 3830.55700	1.618071	0.000061
 3831.77700	1.618084	0.000061
 3832.99800	1.618096	0.000061
 3834.21900	1.618109	0.000061
 3835.43900	1.618121	0.000061
 3836.66000	1.618134	0.000060
 3837.88100	1.618146	0.000060
 3839.10100	1.618159	0.000060
 3840.32200	1.618171	0.000060
 3841.54300	1.618184	0.000060
 3842.76400	1.618196	0.000060
 3843.98400	1.618209	0.000060
 3845.20500	1.618221	0.000060
 3846.42600	1.618234	0.000060
 3847.64600	1.618246	0.000060
 3848.86700	1.618259	0.000060
 3850.08800	1.618271	0.000060
 3851.30800	1.618283	0.000060
 3852.52900	1.618296	0.000060
 3853.75000	1.618308	0.000060
 3854.97100	1.618320	0.000060
 3856.19100	1.618333	0.000059
 3857.41200	1.618345	0.000059
 3858.63300	1.618357	0.000059
 3859.85300	1.618370	0.000059
 3861.07400	1.618382	0.000059
 3862.29500	1.618394	0.000059
 3863.51500	1.618407	0.000059
 3864.73600	1.618419	0.000059
 3865.95700	1.618431	0.000059
 3867.17800	1.618443	0.000059
 3868.39800	1.618456	0.000059
 3869.61900	1.618468	0.000059
 3870.84000	1.618480	0.000059
 3872.06000	1.618492	0.000059
 3873.28100	1.618504	0.000059
 3874.50200	1.618516	0.000059
 3875.72200	1.618529	0.000059
 3876.94300	1.618541	0.000059
 3878.16400	1.618553	0.000059
 3879.38500	1.618565	0.000058
 3880.60500	1.618577	0.000058
 3881.82600	1.618589	0.000058
 3883.04700	1.618601	0.000058
 3884.26700	1.618613	0.000058
 3885.48800	1.618625	0.000058
 3886.70900	1.618637	0.000058
 3887.92900	1.618649	0.000058
 3889.15000	1.618661	0.000058
 3890.37100	1.618673	0.000058
 3891.59200	1.618685	0.000058
 3892.81200	1.618697	0.000058
 3894.03300	1.618709	0.000058
 3895.25400	1.618721	0.000058
 3896.47400	1.618733	0.000058
 3897.69500	1.618745	0.000058
 3898.91600	1.618757	0.000058
 3900.13600	1.618769	0.000058
 3901.35700	1.618781	0.000057
 3902.57800	1.618793	0.000057
 3903.79900	1.618805	0.000057
 3905.01900	1.618816	0.000057
 3906.24000	1.618828	0.000057
 3907.46100	1.618840	0.000057
 3908.68100	1.618852	0.000057
 3909.90200	1.618864	0.000057
 3911.12300	1.618876	0.000057
 3912.34300	1.618887	0.000057
 3913.56400	1.618899	0.000057
 3914.78500	1.618911	0.000057
 3916.00600	1.618923	0.000057
 3917.22600	1.618935	0.000057
 3918.44700	1.618946	0.000057
 3919.66800	1.618958	0.000057
 3920.88800	1.618970	0.000057
 3922.10900	1.618981	0.000056
 3923.33000	1.618993	0.000056
 3924.55000	1.619005	0.000056
 3925.77100	1.619016	0.000056
 3926.99200	1.619028	0.000056
 3928.21300	1.619040	0.000056
 3929.43300	1.619051	0.000056
 3930.65400	1.619063	0.000056
 3931.87500	1.619074	0.000056
 3933.09500	1.619086	0.000056
 3934.31600	1.619098	0.000056
 3935.53700	1.619109	0.000056
 3936.75700	1.619121	0.000056
 3937.97800	1.619132	0.000056
 3939.19900	1.619144	0.000056
 3940.42000	1.619155	0.000056
 3941.64000	1.619167	0.000056
 3942.86100	1.619178	0.000056
 3944.08200	1.619190	0.000056
 3945.30200	1.619201	0.000055
 3946.52300	1.619213	0.000055
 3947.74400	1.619224	0.000055
 3948.96400	1.619236	0.000055
 3950.18500	1.619247	0.000055
 3951.40600	1.619259	0.000055
 3952.62700	1.619270	0.000055
 3953.84700	1.619282	0.000055
 3955.06800	1.619293	0.000055
 3956.28900	1.619304	0.000055
 3957.50900	1.619316	0.000055
 3958.73000	1.619327	0.000055
 3959.95100	1.619338	0.000055
 3961.17100	1.619350	0.000055
 3962.39200	1.619361	0.000055
 3963.61300	1.619372	0.000055
 3964.83400	1.619384	0.000055
 3966.05400	1.619395	0.000055
 3967.27500	1.619406	0.000055
 3968.49600	1.619418	0.000054
 3969.71600	1.619429	0.000054
 3970.93700	1.619440	0.000054
 3972.15800	1.619451	0.000054
 3973.37800	1.619462	0.000054
 3974.59900	1.619474	0.000054
 3975.82000	1.619485	0.000054
 3977.04100	1.619496	0.000054
 3978.26100	1.619507	0.000054
 3979.48200	1.619518	0.000054
 3980.70300	1.619530	0.000054
 3981.92300	1.619541	0.000054
 3983.14400	1.619552	0.000054
 3984.36500	1.619563	0.000054
 3985.58500	1.619574	0.000054
 3986.80600	1.619585	0.000054
 3988.02700	1.619596	0.000054
 3989.24800	1.619607	0.000053
 3990.46800	1.619619	0.000053
 3991.68900	1.619630	0.000053
 3992.91000	1.619641	0.000053
 3994.13000	1.619652	0.000053
 3995.35100	1.619663	0.000053
 3996.57200	1.619674	0.000053
 3997.79200	1.619685	0.000053
 3999.01300	1.619696	0.000053
 4000.23400	1.619707	0.000053
 4001.45500	1.619718	0.000053
 4002.67500	1.619729	0.000053
 4003.89600	1.619740	0.000053
 4005.11700	1.619751	0.000053
 4006.33700	1.619762	0.000053
 4007.55800	1.619773	0.000053
 4008.77900	1.619784	0.000053
 4009.99900	1.619794	0.000053
 4011.22000	1.619805	0.000053
 4012.44100	1.619816	0.000053
 4013.66200	1.619827	0.000052
 4014.88200	1.619838	0.000052
 4016.10300	1.619849	0.000052
 4017.32400	1.619860	0.000052
 4018.54400	1.619870	0.000052
 4019.76500	1.619881	0.000052
 4020.98600	1.619892	0.000052
 4022.20600	1.619903	0.000052
 4023.42700	1.619914	0.000052
 4024.64800	1.619924	0.000052
 4025.86900	1.619935	0.000052
 4027.08900	1.619946	0.000052
 4028.31000	1.619957	0.000052
 4029.53100	1.619967	0.000052
 4030.75100	1.619978	0.000052
 4031.97200	1.619989	0.000052
 4033.19300	1.620000	0.000052
 4034.41300	1.620010	0.000052
 4035.63400	1.620021	0.000052
 4036.85500	1.620032	0.000052
 4038.07600	1.620042	0.000051
 4039.29600	1.620053	0.000051
 4040.51700	1.620064	0.000051
 4041.73800	1.620074	0.000051
 4042.95800	1.620085	0.000051
 4044.17900	1.620096	0.000051
 4045.40000	1.620106	0.000051
 4046.62000	1.620117	0.000051
 4047.84100	1.620127	0.000051
 4049.06200	1.620138	0.000051
 4050.28300	1.620149	0.000051
 4051.50300	1.620159	0.000051
 4052.72400	1.620170	0.000051
 4053.94500	1.620180	0.000051
 4055.16500	1.620191	0.000051
 4056.38600	1.620201	0.000051
 4057.60700	1.620212	0.000051
 4058.82700	1.620222	0.000051
 4060.04800	1.620233	0.000051
 4061.26900	1.620243	0.000051
 4062.49000	1.620254	0.000051
 4063.71000	1.620264	0.000050
 4064.93100	1.620275	0.000050
 4066.15200	1.620285	0.000050
 4067.37200	1.620296	0.000050
 4068.59300	1.620306	0.000050
 4069.81400	1.620316	0.000050
 4071.03400	1.620327	0.000050
 4072.25500	1.620337	0.000050
 4073.47600	1.620347	0.000050
 4074.69700	1.620358	0.000050
 4075.91700	1.620368	0.000050
 4077.13800	1.620379	0.000050
 4078.35900	1.620389	0.000050
 4079.57900	1.620399	0.000050
 4080.80000	1.620410	0.000050
 4082.02100	1.620420	0.000050
 4083.24100	1.620430	0.000050
 4084.46200	1.620441	0.000050
 4085.68300	1.620451	0.000050
 4086.90400	1.620461	0.000050
 4088.12400	1.620471	0.000050
 4089.34500	1.620482	0.000049
 4090.56600	1.620492	0.000049
 4091.78600	1.620502	0.000049
 4093.00700	1.620512	0.000049
 4094.22800	1.620523	0.000049
 4095.44800	1.620533	0.000049
 4096.66900	1.620543	0.000049
 4097.89000	1.620553	0.000049
 4099.11100	1.620563	0.000049
 4100.33100	1.620574	0.000049
 4101.55200	1.620584	0.000049
 4102.77300	1.620594	0.000049
 4103.99300	1.620604	0.000049
 4105.21400	1.620614	0.000049
 4106.43500	1.620624	0.000049
 4107.65500	1.620634	0.000049
 4108.87600	1.620644	0.000049
 4110.09700	1.620655	0.000049
 4111.31800	1.620665	0.000049
 4112.53800	1.620675	0.000049
 4113.75900	1.620685	0.000049
 4114.98000	1.620695	0.000049
 4116.20000	1.620705	0.000048
 4117.42100	1.620715	0.000048
 4118.64200	1.620725	0.000048
 4119.86200	1.620735	0.000048
 4121.08300	1.620745	0.000048
 4122.30400	1.620755	0.000048
 4123.52500	1.620765	0.000048
 4124.74500	1.620775	0.000048
 4125.96600	1.620785	0.000048
 4127.18700	1.620795	0.000048
 4128.40700	1.620805	0.000048
 4129.62800	1.620815	0.000048
 4130.84900	1.620825	0.000048
 4132.06900	1.620835	0.000048
 4133.29000	1.620845	0.000048
 4134.51100	1.620854	0.000048
 4135.73200	1.620864	0.000048
 4136.95200	1.620874	0.000048
 4138.17300	1.620884	0.000048
 4139.39400	1.620894	0.000048
 4140.61400	1.620904	0.000048
 4141.83500	1.620914	0.000048
 4143.05600	1.620924	0.000048
 4144.27600	1.620933	0.000048
 4145.49700	1.620943	0.000048
 4146.71800	1.620953	0.000047
 4147.93900	1.620963	0.000047
 4149.15900	1.620973	0.000047
 4150.38000	1.620983	0.000047
 4151.60100	1.620992	0.000047
 4152.82100	1.621002	0.000047
 4154.04200	1.621012	0.000047
 4155.26300	1.621022	0.000047
 4156.48300	1.621031	0.000047
 4157.70400	1.621041	0.000047
 4158.92500	1.621051	0.000047
 4160.14600	1.621060	0.000047
 4161.36600	1.621070	0.000047
 4162.58700	1.621080	0.000047
 4163.80800	1.621090	0.000047
 4165.02800	1.621099	0.000047
 4166.24900	1.621109	0.000047
 4167.47000	1.621119	0.000047
 4168.69000	1.621128	0.000047
 4169.91100	1.621138	0.000047
 4171.13200	1.621148	0.000047
 4172.35300	1.621157	0.000047
 4173.57300	1.621167	0.000047
 4174.79400	1.621176	0.000046
 4176.01500	1.621186	0.000046
 4177.23500	1.621196	0.000046
 4178.45600	1.621205	0.000046
 4179.67700	1.621215	0.000046
 4180.89700	1.621224	0.000046
 4182.11800	1.621234	0.000046
 4183.33900	1.621243	0.000046
 4184.56000	1.621253	0.000046
 4185.78000	1.621263	0.000046
 4187.00100	1.621272	0.000046
 4188.22200	1.621282	0.000046
 4189.44200	1.621291	0.000046
 4190.66300	1.621301	0.000046
 4191.88400	1.621310	0.000046
 4193.10400	1.621320	0.000046
 4194.32500	1.621329	0.000046
 4195.54600	1.621338	0.000046
 4196.76700	1.621348	0.000046
 4197.98700	1.621357	0.000046
 4199.20800	1.621367	0.000046
 4200.42900	1.621376	0.000046
 4201.64900	1.621386	0.000046
 4202.87000	1.621395	0.000046
 4204.09100	1.621405	0.000045
 4205.31100	1.621414	0.000045
 4206.53200	1.621423	0.000045
 4207.75300	1.621433	0.000045
 4208.97400	1.621442	0.000045
 4210.19400	1.621451	0.000045
 4211.41500	1.621461	0.000045
 4212.63600	1.621470	0.000045
 4213.85600	1.621479	0.000045
 4215.07700	1.621489	0.000045
 4216.29800	1.621498	0.000045
 4217.51800	1.621507	0.000045
 4218.73900	1.621517	0.000045
 4219.96000	1.621526	0.000045
 4221.18100	1.621535	0.000045
 4222.40100	1.621544	0.000045
 4223.62200	1.621554	0.000045
 4224.84300	1.621563	0.000045
 4226.06300	1.621572	0.000045
 4227.28400	1.621582	0.000045
 4228.50500	1.621591	0.000045
 4229.72500	1.621600	0.000045
 4230.94600	1.621609	0.000045
 4232.16700	1.621618	0.000045
 4233.38800	1.621628	0.000044
 4234.60800	1.621637	0.000044
 4235.82900	1.621646	0.000044
 4237.05000	1.621655	0.000044
 4238.27000	1.621664	0.000044
 4239.49100	1.621673	0.000044
 4240.71200	1.621683	0.000044
 4241.93200	1.621692	0.000044
 4243.15300	1.621701	0.000044
 4244.37400	1.621710	0.000044
 4245.59500	1.621719	0.000044
 4246.81500	1.621728	0.000044
 4248.03600	1.621737	0.000044
 4249.25700	1.621746	0.000044
 4250.47700	1.621755	0.000044
 4251.69800	1.621765	0.000044
 4252.91900	1.621774	0.000044
 4254.13900	1.621783	0.000044
 4255.36000	1.621792	0.000044
 4256.58100	1.621801	0.000044
 4257.80200	1.621810	0.000044
 4259.02200	1.621819	0.000044
 4260.24300	1.621828	0.000044
 4261.46400	1.621837	0.000044
 4262.68400	1.621846	0.000044
 4263.90500	1.621855	0.000044
 4265.12600	1.621864	0.000043
 4266.34600	1.621873	0.000043
 4267.56700	1.621882	0.000043
 4268.78800	1.621891	0.000043
 4270.00900	1.621900	0.000043
 4271.22900	1.621909	0.000043
 4272.45000	1.621918	0.000043
 4273.67100	1.621927	0.000043
 4274.89100	1.621935	0.000043
 4276.11200	1.621945	0.000043
 4277.33300	1.621953	0.000043
 4278.55300	1.621962	0.000043
 4279.77400	1.621971	0.000043
 4280.99500	1.621980	0.000043
 4282.21600	1.621989	0.000043
 4283.43600	1.621998	0.000043
 4284.65700	1.622007	0.000043
 4285.87800	1.622015	0.000043
 4287.09800	1.622024	0.000043
 4288.31900	1.622033	0.000043
 4289.54000	1.622042	0.000043
 4290.76000	1.622051	0.000043
 4291.98100	1.622060	0.000043
 4293.20200	1.622069	0.000042
 4294.42300	1.622077	0.000042
 4295.64300	1.622086	0.000042
 4296.86400	1.622095	0.000042
 4298.08500	1.622104	0.000042
 4299.30500	1.622112	0.000042
 4300.52600	1.622121	0.000042
 4301.74700	1.622130	0.000042
 4302.96700	1.622139	0.000042
 4304.18800	1.622147	0.000042
 4305.40900	1.622156	0.000042
 4306.63000	1.622165	0.000042
 4307.85000	1.622174	0.000042
 4309.07100	1.622182	0.000042
 4310.29200	1.622191	0.000042
 4311.51200	1.622200	0.000042
 4312.73300	1.622208	0.000042
 4313.95400	1.622217	0.000042
 4315.17400	1.622226	0.000042
 4316.39500	1.622234	0.000042
 4317.61600	1.622243	0.000042
 4318.83700	1.622252	0.000042
 4320.05700	1.622260	0.000042
 4321.27800	1.622269	0.000042
 4322.49900	1.622277	0.000042
 4323.71900	1.622286	0.000042
 4324.94000	1.622295	0.000042
 4326.16100	1.622303	0.000041
 4327.38100	1.622312	0.000041
 4328.60200	1.622320	0.000041
 4329.82300	1.622329	0.000041
 4331.04400	1.622338	0.000041
 4332.26400	1.622346	0.000041
 4333.48500	1.622355	0.000041
 4334.70600	1.622363	0.000041
 4335.92600	1.622372	0.000041
 4337.14700	1.622380	0.000041
 4338.36800	1.622389	0.000041
 4339.58800	1.622397	0.000041
 4340.80900	1.622406	0.000041
 4342.03000	1.622414	0.000041
 4343.25100	1.622423	0.000041
 4344.47100	1.622431	0.000041
 4345.69200	1.622440	0.000041
 4346.91300	1.622448	0.000041
 4348.13300	1.622457	0.000041
 4349.35400	1.622465	0.000041
 4350.57500	1.622474	0.000041
 4351.79500	1.622482	0.000041
 4353.01600	1.622491	0.000041
 4354.23700	1.622499	0.000041
 4355.45800	1.622507	0.000041
 4356.67800	1.622516	0.000041
 4357.89900	1.622524	0.000041
 4359.12000	1.622533	0.000041
 4360.34000	1.622541	0.000040
 4361.56100	1.622549	0.000040
 4362.78200	1.622558	0.000040
 4364.00200	1.622566	0.000040
 4365.22300	1.622574	0.000040
 4366.44400	1.622583	0.000040
 4367.66500	1.622591	0.000040
 4368.88500	1.622599	0.000040
 4370.10600	1.622608	0.000040
 4371.32700	1.622616	0.000040
 4372.54700	1.622625	0.000040
 4373.76800	1.622633	0.000040
 4374.98900	1.622641	0.000040
 4376.20900	1.622649	0.000040
 4377.43000	1.622658	0.000040
 4378.65100	1.622666	0.000040
 4379.87200	1.622674	0.000040
 4381.09200	1.622682	0.000040
 4382.31300	1.622691	0.000040
 4383.53400	1.622699	0.000040
 4384.75400	1.622707	0.000040
 4385.97500	1.622715	0.000040
 4387.19600	1.622724	0.000040
 4388.41600	1.622732	0.000040
 4389.63700	1.622740	0.000040
 4390.85800	1.622748	0.000040
 4392.07900	1.622757	0.000040
 4393.29900	1.622765	0.000040
 4394.52000	1.622773	0.000040
 4395.74100	1.622781	0.000039
 4396.96100	1.622789	0.000039
 4398.18200	1.622797	0.000039
 4399.40300	1.622806	0.000039
 4400.62300	1.622814	0.000039
 4401.84400	1.622822	0.000039
 4403.06500	1.622830	0.000039
 4404.28600	1.622838	0.000039
 4405.50600	1.622846	0.000039
 4406.72700	1.622854	0.000039
 4407.94800	1.622862	0.000039
 4409.16800	1.622871	0.000039
 4410.38900	1.622879	0.000039
 4411.61000	1.622887	0.000039
 4412.83000	1.622895	0.000039
 4414.05100	1.622903	0.000039
 4415.27200	1.622911	0.000039
 4416.49300	1.622919	0.000039
 4417.71300	1.622927	0.000039
 4418.93400	1.622935	0.000039
 4420.15500	1.622943	0.000039
 4421.37500	1.622951	0.000039
 4422.59600	1.622959	0.000039
 4423.81700	1.622967	0.000039
 4425.03700	1.622975	0.000039
 4426.25800	1.622983	0.000039
 4427.47900	1.622991	0.000039
 4428.70000	1.622999	0.000039
 4429.92000	1.623007	0.000039
 4431.14100	1.623015	0.000038
 4432.36200	1.623023	0.000038
 4433.58200	1.623031	0.000038
 4434.80300	1.623039	0.000038
 4436.02400	1.623047	0.000038
 4437.24400	1.623055	0.000038
 4438.46500	1.623063	0.000038
 4439.68600	1.623071	0.000038
 4440.90700	1.623079	0.000038
 4442.12700	1.623087	0.000038
 4443.34800	1.623095	0.000038
 4444.56900	1.623103	0.000038
 4445.78900	1.623111	0.000038
 4447.01000	1.623118	0.000038
 4448.23100	1.623126	0.000038
 4449.45100	1.623134	0.000038
 4450.67200	1.623142	0.000038
 4451.89300	1.623150	0.000038
 4453.11400	1.623158	0.000038
 4454.33400	1.623166	0.000038
 4455.55500	1.623173	0.000038
 4456.77600	1.623181	0.000038
 4457.99600	1.623189	0.000038
 4459.21700	1.623197	0.000038
 4460.43800	1.623205	0.000038
 4461.65800	1.623212	0.000038
 4462.87900	1.623220	0.000038
 4464.10000	1.623228	0.000038
 4465.32100	1.623236	0.000038
 4466.54100	1.623244	0.000038
 4467.76200	1.623251	0.000038
 4468.98300	1.623259	0.000038
 4470.20300	1.623267	0.000038
 4471.42400	1.623275	0.000038
 4472.64500	1.623282	0.000037
 4473.86500	1.623290	0.000037
 4475.08600	1.623298	0.000037
 4476.30700	1.623306	0.000037
 4477.52800	1.623313	0.000037
 4478.74800	1.623321	0.000037
 4479.96900	1.623329	0.000037
 4481.19000	1.623337	0.000037
 4482.41000	1.623344	0.000037
 4483.63100	1.623352	0.000037
 4484.85200	1.623360	0.000037
 4486.07200	1.623367	0.000037
 4487.29300	1.623375	0.000037
 4488.51400	1.623383	0.000037
 4489.73500	1.623390	0.000037
 4490.95500	1.623398	0.000037
 4492.17600	1.623406	0.000037
 4493.39700	1.623413	0.000037
 4494.61700	1.623421	0.000037
 4495.83800	1.623428	0.000037
 4497.05900	1.623436	0.000037
 4498.27900	1.623444	0.000037
 4499.50000	1.623451	0.000037
 4500.72100	1.623459	0.000037
 4501.94200	1.623466	0.000037
 4503.16200	1.623474	0.000037
 4504.38300	1.623482	0.000037
 4505.60400	1.623489	0.000037
 4506.82400	1.623497	0.000037
 4508.04500	1.623504	0.000037
 4509.26600	1.623512	0.000037
 4510.48600	1.623519	0.000037
 4511.70700	1.623527	0.000036
 4512.92800	1.623534	0.000036
 4514.14900	1.623542	0.000036
 4515.36900	1.623550	0.000036
 4516.59000	1.623557	0.000036
 4517.81100	1.623565	0.000036
 4519.03100	1.623572	0.000036
 4520.25200	1.623580	0.000036
 4521.47300	1.623587	0.000036
 4522.69300	1.623595	0.000036
 4523.91400	1.623602	0.000036
 4525.13500	1.623610	0.000036
 4526.35600	1.623617	0.000036
 4527.57600	1.623624	0.000036
 4528.79700	1.623632	0.000036
 4530.01800	1.623639	0.000036
 4531.23800	1.623647	0.000036
 4532.45900	1.623654	0.000036
 4533.68000	1.623662	0.000036
 4534.90000	1.623669	0.000036
 4536.12100	1.623677	0.000036
 4537.34200	1.623684	0.000036
 4538.56300	1.623691	0.000036
 4539.78300	1.623699	0.000036
 4541.00400	1.623706	0.000036
 4542.22500	1.623713	0.000036
 4543.44500	1.623721	0.000036
 4544.66600	1.623728	0.000036
 4545.88700	1.623736	0.000036
 4547.10700	1.623743	0.000036
 4548.32800	1.623750	0.000036
 4549.54900	1.623758	0.000036
 4550.77000	1.623765	0.000036
 4551.99000	1.623772	0.000036
 4553.21100	1.623780	0.000035
 4554.43200	1.623787	0.000035
 4555.65200	1.623794	0.000035
 4556.87300	1.623802	0.000035
 4558.09400	1.623809	0.000035
 4559.31400	1.623816	0.000035
 4560.53500	1.623824	0.000035
 4561.75600	1.623831	0.000035
 4562.97700	1.623838	0.000035
 4564.19700	1.623845	0.000035
 4565.41800	1.623853	0.000035
 4566.63900	1.623860	0.000035
 4567.85900	1.623867	0.000035
 4569.08000	1.623874	0.000035
 4570.30100	1.623882	0.000035
 4571.52100	1.623889	0.000035
 4572.74200	1.623896	0.000035
 4573.96300	1.623903	0.000035
 4575.18400	1.623911	0.000035
 4576.40400	1.623918	0.000035
 4577.62500	1.623925	0.000035
 4578.84600	1.623932	0.000035
 4580.06600	1.623939	0.000035
 4581.28700	1.623947	0.000035
 4582.50800	1.623954	0.000035
 4583.72800	1.623961	0.000035
 4584.94900	1.623968	0.000035
 4586.17000	1.623975	0.000035
 4587.39100	1.623982	0.000035
 4588.61100	1.623990	0.000035
 4589.83200	1.623997	0.000035
 4591.05300	1.624004	0.000035
 4592.27300	1.624011	0.000035
 4593.49400	1.624018	0.000035
 4594.71500	1.624025	0.000034
 4595.93500	1.624032	0.000034
 4597.15600	1.624040	0.000034
 4598.37700	1.624047	0.000034
 4599.59800	1.624054	0.000034
 4600.81800	1.624061	0.000034
 4602.03900	1.624068	0.000034
 4603.26000	1.624075	0.000034
 4604.48000	1.624082	0.000034
 4605.70100	1.624089	0.000034
 4606.92200	1.624096	0.000034
 4608.14200	1.624103	0.000034
 4609.36300	1.624110	0.000034
 4610.58400	1.624117	0.000034
 4611.80500	1.624124	0.000034
 4613.02500	1.624131	0.000034
 4614.24600	1.624138	0.000034
 4615.46700	1.624146	0.000034
 4616.68700	1.624153	0.000034
 4617.90800	1.624160	0.000034
 4619.12900	1.624167	0.000034
 4620.34900	1.624174	0.000034
 4621.57000	1.624181	0.000034
 4622.79100	1.624188	0.000034
 4624.01200	1.624195	0.000034
 4625.23200	1.624202	0.000034
 4626.45300	1.624208	0.000034
 4627.67400	1.624215	0.000034
 4628.89400	1.624222	0.000034
 4630.11500	1.624229	0.000034
 4631.33600	1.624236	0.000034
 4632.55600	1.624243	0.000034
 4633.77700	1.624250	0.000034
 4634.99800	1.624257	0.000034
 4636.21900	1.624264	0.000034
 4637.43900	1.624271	0.000034
 4638.66000	1.624278	0.000033
 4639.88100	1.624285	0.000033
 4641.10100	1.624292	0.000033
 4642.32200	1.624299	0.000033
 4643.54300	1.624305	0.000033
 4644.76300	1.624312	0.000033
 4645.98400	1.624319	0.000033
 4647.20500	1.624326	0.000033
 4648.42600	1.624333	0.000033
 4649.64600	1.624340	0.000033
 4650.86700	1.624347	0.000033
 4652.08800	1.624354	0.000033
 4653.30800	1.624360	0.000033
 4654.52900	1.624367	0.000033
 4655.75000	1.624374	0.000033
 4656.97000	1.624381	0.000033
 4658.19100	1.624388	0.000033
 4659.41200	1.624395	0.000033
 4660.63300	1.624401	0.000033
 4661.85300	1.624408	0.000033
 4663.07400	1.624415	0.000033
 4664.29500	1.624422	0.000033
 4665.51500	1.624429	0.000033
 4666.73600	1.624435	0.000033
 4667.95700	1.624442	0.000033
 4669.17700	1.624449	0.000033
 4670.39800	1.624456	0.000033
 4671.61900	1.624463	0.000033
 4672.84000	1.624469	0.000033
 4674.06000	1.624476	0.000033
 4675.28100	1.624483	0.000033
 4676.50200	1.624490	0.000033
 4677.72200	1.624496	0.000033
 4678.94300	1.624503	0.000033
 4680.16400	1.624510	0.000033
 4681.38400	1.624516	0.000033
 4682.60500	1.624523	0.000033
 4683.82600	1.624530	0.000033
 4685.04700	1.624537	0.000032
 4686.26700	1.624543	0.000032
 4687.48800	1.624550	0.000032
 4688.70900	1.624557	0.000032
 4689.92900	1.624563	0.000032
 4691.15000	1.624570	0.000032
 4692.37100	1.624577	0.000032
 4693.59100	1.624583	0.000032
 4694.81200	1.624590	0.000032
 4696.03300	1.624597	0.000032
 4697.25400	1.624603	0.000032
 4698.47400	1.624610	0.000032
 4699.69500	1.624617	0.000032
 4700.91600	1.624623	0.000032
 4702.13600	1.624630	0.000032
 4703.35700	1.624637	0.000032
 4704.57800	1.624643	0.000032
 4705.79800	1.624650	0.000032
 4707.01900	1.624656	0.000032
 4708.24000	1.624663	0.000032
 4709.46100	1.624670	0.000032
 4710.68100	1.624676	0.000032
 4711.90200	1.624683	0.000032
 4713.12300	1.624689	0.000032
 4714.34300	1.624696	0.000032
 4715.56400	1.624703	0.000032
 4716.78500	1.624709	0.000032
 4718.00500	1.624716	0.000032
 4719.22600	1.624722	0.000032
 4720.44700	1.624729	0.000032
 4721.66800	1.624735	0.000032
 4722.88800	1.624742	0.000032
 4724.10900	1.624748	0.000032
 4725.33000	1.624755	0.000032
 4726.55000	1.624761	0.000032
 4727.77100	1.624768	0.000031
 4728.99200	1.624775	0.000031
 4730.21200	1.624781	0.000031
 4731.43300	1.624788	0.000031
 4732.65400	1.624794	0.000031
 4733.87500	1.624801	0.000031
 4735.09500	1.624807	0.000031
 4736.31600	1.624814	0.000031
 4737.53700	1.624820	0.000031
 4738.75700	1.624826	0.000031
 4739.97800	1.624833	0.000031
 4741.19900	1.624839	0.000031
 4742.41900	1.624846	0.000031
 4743.64000	1.624852	0.000031
 4744.86100	1.624859	0.000031
 4746.08200	1.624865	0.000031
 4747.30200	1.624872	0.000031
 4748.52300	1.624878	0.000031
 4749.74400	1.624884	0.000031
 4750.96400	1.624891	0.000031
 4752.18500	1.624897	0.000031
 4753.40600	1.624904	0.000031
 4754.62600	1.624910	0.000031
 4755.84700	1.624917	0.000031
 4757.06800	1.624923	0.000031
 4758.28900	1.624929	0.000031
 4759.50900	1.624936	0.000031
 4760.73000	1.624942	0.000031
 4761.95100	1.624949	0.000031
 4763.17100	1.624955	0.000031
 4764.39200	1.624961	0.000031
 4765.61300	1.624968	0.000031
 4766.83300	1.624974	0.000031
 4768.05400	1.624980	0.000031
 4769.27500	1.624987	0.000031
 4770.49600	1.624993	0.000031
 4771.71600	1.624999	0.000031
 4772.93700	1.625006	0.000031
 4774.15800	1.625012	0.000031
 4775.37800	1.625018	0.000031
 4776.59900	1.625025	0.000030
 4777.82000	1.625031	0.000030
 4779.04000	1.625037	0.000030
 4780.26100	1.625044	0.000030
 4781.48200	1.625050	0.000030
 4782.70300	1.625056	0.000030
 4783.92300	1.625062	0.000030
 4785.14400	1.625069	0.000030
 4786.36500	1.625075	0.000030
 4787.58500	1.625081	0.000030
 4788.80600	1.625087	0.000030
 4790.02700	1.625094	0.000030
 4791.24700	1.625100	0.000030
 4792.46800	1.625106	0.000030
 4793.68900	1.625112	0.000030
 4794.91000	1.625119	0.000030
 4796.13000	1.625125	0.000030
 4797.35100	1.625131	0.000030
 4798.57200	1.625137	0.000030
 4799.79200	1.625144	0.000030
 4801.01300	1.625150	0.000030
 4802.23400	1.625156	0.000030
 4803.45400	1.625162	0.000030
 4804.67500	1.625168	0.000030
 4805.89600	1.625175	0.000030
 4807.11700	1.625181	0.000030
 4808.33700	1.625187	0.000030
 4809.55800	1.625193	0.000030
 4810.77900	1.625199	0.000030
 4811.99900	1.625206	0.000030
 4813.22000	1.625212	0.000030
 4814.44100	1.625218	0.000030
 4815.66100	1.625224	0.000030
 4816.88200	1.625230	0.000030
 4818.10300	1.625236	0.000030
 4819.32400	1.625242	0.000030
 4820.54400	1.625249	0.000030
 4821.76500	1.625255	0.000030
 4822.98600	1.625261	0.000030
 4824.20600	1.625267	0.000030
 4825.42700	1.625273	0.000030
 4826.64800	1.625279	0.000030
 4827.86800	1.625285	0.000030
 4829.08900	1.625291	0.000030
 4830.31000	1.625298	0.000030
 4831.53100	1.625304	0.000030
 4832.75100	1.625310	0.000030
 4833.97200	1.625316	0.000029
 4835.19300	1.625322	0.000029
 4836.41300	1.625328	0.000029
 4837.63400	1.625334	0.000029
 4838.85500	1.625340	0.000029
 4840.07500	1.625346	0.000029
 4841.29600	1.625352	0.000029
 4842.51700	1.625358	0.000029
 4843.73800	1.625364	0.000029
 4844.95800	1.625370	0.000029
 4846.17900	1.625376	0.000029
 4847.40000	1.625383	0.000029
 4848.62000	1.625389	0.000029
 4849.84100	1.625395	0.000029
 4851.06200	1.625401	0.000029
 4852.28200	1.625407	0.000029
 4853.50300	1.625413	0.000029
 4854.72400	1.625419	0.000029
 4855.94500	1.625425	0.000029
 4857.16500	1.625431	0.000029
 4858.38600	1.625437	0.000029
 4859.60700	1.625443	0.000029
 4860.82700	1.625449	0.000029
 4862.04800	1.625455	0.000029
 4863.26900	1.625461	0.000029
 4864.48900	1.625466	0.000029
 4865.71000	1.625472	0.000029
 4866.93100	1.625478	0.000029
 4868.15200	1.625484	0.000029
 4869.37200	1.625490	0.000029
 4870.59300	1.625496	0.000029
 4871.81400	1.625502	0.000029
 4873.03400	1.625508	0.000029
 4874.25500	1.625514	0.000029
 4875.47600	1.625520	0.000029
 4876.69600	1.625526	0.000029
 4877.91700	1.625532	0.000029
 4879.13800	1.625538	0.000029
 4880.35900	1.625544	0.000029
 4881.57900	1.625550	0.000029
 4882.80000	1.625556	0.000029
 4884.02100	1.625561	0.000029
 4885.24100	1.625567	0.000029
 4886.46200	1.625573	0.000029
 4887.68300	1.625579	0.000028
 4888.90300	1.625585	0.000028
 4890.12400	1.625591	0.000028
 4891.34500	1.625597	0.000028
 4892.56600	1.625602	0.000028
 4893.78600	1.625608	0.000028
 4895.00700	1.625614	0.000028
 4896.22800	1.625620	0.000028
 4897.44800	1.625626	0.000028
 4898.66900	1.625632	0.000028
 4899.89000	1.625638	0.000028
 4901.11000	1.625643	0.000028
 4902.33100	1.625649	0.000028
 4903.55200	1.625655	0.000028
 4904.77300	1.625661	0.000028
 4905.99300	1.625667	0.000028
 4907.21400	1.625672	0.000028
 4908.43500	1.625678	0.000028
 4909.65500	1.625684	0.000028
 4910.87600	1.625690	0.000028
 4912.09700	1.625696	0.000028
 4913.31700	1.625701	0.000028
 4914.53800	1.625707	0.000028
 4915.75900	1.625713	0.000028
 4916.98000	1.625719	0.000028
 4918.20000	1.625725	0.000028
 4919.42100	1.625730	0.000028
 4920.64200	1.625736	0.000028
 4921.86200	1.625742	0.000028
 4923.08300	1.625748	0.000028
 4924.30400	1.625753	0.000028
 4925.52400	1.625759	0.000028
 4926.74500	1.625765	0.000028
 4927.96600	1.625771	0.000028
 4929.18700	1.625776	0.000028
 4930.40700	1.625782	0.000028
 4931.62800	1.625788	0.000028
 4932.84900	1.625793	0.000028
 4934.06900	1.625799	0.000028
 4935.29000	1.625805	0.000028
 4936.51100	1.625811	0.000028
 4937.73100	1.625816	0.000028
 4938.95200	1.625822	0.000028
 4940.17300	1.625828	0.000028
 4941.39400	1.625833	0.000028
 4942.61400	1.625839	0.000028
 4943.83500	1.625845	0.000028
 4945.05600	1.625850	0.000027
 4946.27600	1.625856	0.000027
 4947.49700	1.625862	0.000027
 4948.71800	1.625865	0.000027
 4949.93800	1.625867	0.000027
 4951.15900	1.625873	0.000027
 4952.38000	1.625879	0.000027
 4953.60100	1.625884	0.000027
 4954.82100	1.625890	0.000027
 4956.04200	1.625896	0.000027
 4957.26300	1.625901	0.000027
 4958.48300	1.625907	0.000027
 4959.70400	1.625912	0.000027
 4960.92500	1.625918	0.000027
 4962.14500	1.625924	0.000027
 4963.36600	1.625929	0.000027
 4964.58700	1.625935	0.000027
 4965.80800	1.625941	0.000027
 4967.02800	1.625946	0.000027
 4968.24900	1.625952	0.000027
 4969.47000	1.625957	0.000027
 4970.69000	1.625963	0.000027
 4971.91100	1.625968	0.000027
 4973.13200	1.625974	0.000027
 4974.35200	1.625980	0.000027
 4975.57300	1.625985	0.000027
 4976.79400	1.625991	0.000027
 4978.01500	1.625996	0.000027
 4979.23500	1.626002	0.000027
 4980.45600	1.626008	0.000027
 4981.67700	1.626013	0.000027
 4982.89700	1.626019	0.000027
 4984.11800	1.626024	0.000027
 4985.33900	1.626030	0.000027
 4986.55900	1.626035	0.000027
 4987.78000	1.626041	0.000027
 4989.00100	1.626046	0.000027
 4990.22200	1.626052	0.000027
 4991.44200	1.626057	0.000027
 4992.66300	1.626063	0.000027
 4993.88400	1.626068	0.000027
 4995.10400	1.626074	0.000027
 4996.32500	1.626079	0.000027
 4997.54600	1.626085	0.000027
 4998.76600	1.626090	0.000027
 4999.98700	1.626096	0.000026