#FORMAT = WAVN n dn k dk
#DESCRIPTION = Refractive indices of nitric acid monohydrate at 179 K from 482 to 6002 cm<sup>-1</sup>.
#SUBSTANCE= NAM
#SAMPLEFORM= Thin Film
#TEMPERATURE= 179 K
#CONCENTRATION=   
#DOI=10.1029/94jd02388
#REFERENCE= O. B. Toon, M. A. Tolbert, B. G. Koehler, A. M. Middlebrook, and
## J. Jordan, Infrared optical constants of H2O-ice, amorphous acid
## solutions, and nitric acid hydrates, J. Geophys. Res., 99, 25631 - 25654,
## 1994.
#CONTACT= 
#COMMENT= Derived from 5 spectroscopic measurements of thin crystaline films.
 482 1.962 0.196 4.55E-002 4.5E-003
 490 1.954 0.195 5.00E-002 5.0E-003
 501 1.950 0.195 6.73E-002 6.7E-003
 517 1.936 0.194 7.50E-002 7.5E-003
 536 1.920 0.192 6.35E-002 6.4E-003
 567 1.942 0.194 1.96E-002 2.0E-003
 575 1.955 0.196 2.27E-002 2.3E-003
 598 1.986 0.199 1.21E-002 1.2E-003
 606 2.001 0.200 9.92E-003 9.9E-004
 609 2.009 0.201 7.64E-003 7.6E-004
 613 2.019 0.202 7.64E-003 7.6E-004
 621 2.039 0.204 1.02E-002 1.0E-003
 629 2.058 0.206 1.86E-002 1.9E-003
 633 2.065 0.207 2.07E-002 2.1E-003
 644 2.100 0.210 2.04E-002 2.0E-003
 652 2.134 0.213 2.68E-002 2.7E-003
 660 2.176 0.218 3.74E-002 3.7E-003
 663 2.202 0.220 4.74E-002 4.7E-003
 667 2.230 0.223 6.23E-002 6.2E-003
 679 2.320 0.232 1.32E-001 1.3E-002
 683 2.365 0.236 1.66E-001 1.7E-002
 687 2.419 0.242 2.24E-001 2.2E-002
 690 2.467 0.247 3.27E-001 3.3E-002
 702 2.237 0.224 7.91E-001 7.9E-002
 706 2.059 0.206 7.67E-001 7.7E-002
 714 1.974 0.197 5.68E-001 5.7E-002
 717 2.005 0.201 5.97E-001 6.0E-002
 721 1.965 0.197 7.03E-001 7.0E-002
 729 1.788 0.179 7.03E-001 7.0E-002
 737 1.516 0.152 7.58E-001 7.6E-002
 741 1.378 0.138 5.24E-001 5.2E-002
 744 1.394 0.139 3.07E-001 3.1E-002
 748 1.475 0.148 1.96E-001 2.0E-002
 752 1.556 0.156 1.47E-001 1.5E-002
 760 1.674 0.167 1.20E-001 1.2E-002
 764 1.719 0.172 1.28E-001 1.3E-002
 771 1.758 0.176 1.87E-001 1.9E-002
 775 1.742 0.174 2.13E-001 2.1E-002
 779 1.714 0.171 2.12E-001 2.1E-002
 787 1.683 0.168 1.53E-001 1.5E-002
 795 1.709 0.171 9.09E-002 9.1E-003
 798 1.734 0.173 6.99E-002 7.0E-003
 802 1.767 0.177 5.68E-002 5.7E-003
 806 1.811 0.181 6.26E-002 6.3E-003
 810 1.834 0.183 1.22E-001 1.2E-002
 814 1.788 0.179 1.97E-001 2.0E-002
 818 1.722 0.172 1.58E-001 1.6E-002
 822 1.712 0.171 8.06E-002 8.1E-003
 825 1.738 0.174 4.72E-002 4.7E-003
 829 1.763 0.176 3.59E-002 3.6E-003
 841 1.810 0.181 2.74E-002 2.7E-003
 864 1.865 0.186 2.28E-002 2.3E-003
 887 1.909 0.191 2.40E-002 2.4E-003
 910 1.949 0.195 3.45E-002 3.4E-003
 933 1.975 0.198 5.02E-002 5.0E-003
 953 1.997 0.200 5.25E-002 5.2E-003
 964 2.014 0.201 5.76E-002 5.8E-003
1007 2.072 0.207 7.15E-002 7.2E-003
1018 2.097 0.210 7.08E-002 7.1E-003
1030 2.128 0.213 7.69E-002 7.7E-003
1057 2.216 0.222 1.10E-001 1.1E-002
1072 2.285 0.229 1.64E-001 1.6E-002
1095 2.332 0.233 3.16E-001 3.2E-002
1130 2.202 0.220 5.28E-001 5.3E-002
1153 2.086 0.209 4.32E-001 4.3E-002
1173 2.165 0.216 3.70E-001 3.7E-002
1200 2.322 0.232 4.28E-001 4.3E-002
1219 2.454 0.245 5.64E-001 5.6E-002
1230 2.506 0.251 7.47E-001 7.5E-002
1246 2.396 0.240 9.70E-001 9.7E-002
1269 2.320 0.232 1.18E+000 1.2E-001
1304 1.774 0.177 1.70E+000 1.7E-001
1311 1.517 0.152 1.73E+000 1.7E-001
1323 1.146 0.115 1.59E+000 1.6E-001
1342 0.793 0.079 1.09E+000 1.1E-001
1358 0.843 0.084 8.05E-001 8.0E-002
1377 0.923 0.092 5.44E-001 5.4E-002
1419 1.107 0.111 2.69E-001 2.7E-002
1454 1.247 0.125 1.57E-001 1.6E-002
1489 1.367 0.137 1.21E-001 1.2E-002
1547 1.505 0.150 8.02E-002 8.0E-003
1562 1.546 0.155 8.00E-002 8.0E-003
1577 1.587 0.159 8.65E-002 8.6E-003
1612 1.673 0.167 1.27E-001 1.3E-002
1635 1.735 0.174 1.86E-001 1.9E-002
1651 1.772 0.177 2.73E-001 2.7E-002
1670 1.673 0.167 4.50E-001 4.5E-002
1674 1.624 0.162 4.65E-001 4.7E-002
1682 1.526 0.153 4.45E-001 4.5E-002
1701 1.443 0.144 2.78E-001 2.8E-002
1709 1.457 0.146 2.29E-001 2.3E-002
1728 1.515 0.152 1.69E-001 1.7E-002
1751 1.580 0.158 1.55E-001 1.5E-002
1801 1.641 0.164 2.01E-001 2.0E-002
1817 1.645 0.164 2.17E-001 2.2E-002
1847 1.636 0.164 2.35E-001 2.3E-002
1871 1.639 0.164 2.40E-001 2.4E-002
1894 1.636 0.164 2.54E-001 2.5E-002
1940 1.623 0.162 2.58E-001 2.6E-002
1975 1.620 0.162 2.55E-001 2.5E-002
2025 1.629 0.163 2.52E-001 2.5E-002
2036 1.634 0.163 2.53E-001 2.5E-002
2083 1.652 0.165 2.72E-001 2.7E-002
2125 1.661 0.166 3.08E-001 3.1E-002
2171 1.651 0.165 3.61E-001 3.6E-002
2214 1.600 0.160 4.20E-001 4.2E-002
2249 1.515 0.152 4.35E-001 4.3E-002
2279 1.442 0.144 3.96E-001 4.0E-002
2299 1.413 0.141 3.44E-001 3.4E-002
2337 1.453 0.145 2.61E-001 2.6E-002
2360 1.479 0.148 2.63E-001 2.6E-002
2387 1.484 0.148 2.64E-001 2.6E-002
2422 1.490 0.149 2.47E-001 2.5E-002
2453 1.517 0.152 2.43E-001 2.4E-002
2488 1.537 0.154 2.63E-001 2.6E-002
2519 1.542 0.154 2.89E-001 2.9E-002
2600 1.508 0.151 3.54E-001 3.5E-002
2654 1.431 0.143 3.79E-001 3.8E-002
2700 1.371 0.137 3.47E-001 3.5E-002
2769 1.339 0.134 2.88E-001 2.9E-002
2889 1.312 0.131 2.20E-001 2.2E-002
3001 1.303 0.130 1.51E-001 1.5E-002
3109 1.321 0.132 9.24E-002 9.2E-003
3232 1.356 0.136 4.70E-002 4.7E-003
3325 1.383 0.138 3.02E-002 3.0E-003
3437 1.410 0.141 2.01E-002 2.0E-003
3618 1.440 0.144 1.34E-002 1.3E-003
3714 1.452 0.145 1.18E-002 1.2E-003
3834 1.463 0.146 1.09E-002 1.1E-003
4070 1.480 0.148 0.00E+000 0.0E+000
4246 1.490 0.149 0.00E+000 0.0E+000
4459 1.500 0.150 0.00E+000 0.0E+000
4725 1.510 0.151 0.00E+000 0.0E+000
5131 1.520 0.152 0.00E+000 0.0E+000
6002 1.530 0.153 0.00E+000 0.0E+000