#SUBSTANCE=Nitric Acid Dihydrate (NAD) 
#DESCRIPTION=Refractive indices of nitric acid dihydrate (NAD) from 700 to 4700 cm-1
#SAMPLEFORM=Aerosol
#TEMPERATURE=180 K
#DOI=10.1021/jp981299z
#REFERENCE=Temperature- and Frequency-Dependent Optical Constants for Nitric Acid Dihydrate from Aerosol Spectroscopy
##R. F. Niedziela and, R. E. Miller, and D. R. Worsnop
##The Journal of Physical Chemistry A 1998 102 (32), 6477-6484
#FORMAT=WAVN K N
4696.96	0.0054	1.477
4673.82	0.0031	1.473
4650.67	0.0004	1.471
4627.52	0.0029	1.473
4604.37	0.0004	1.469
4581.23	0.0002	1.471
4558.08	0.0003	1.467
4534.93	0.0020	1.469
4511.79	0.0038	1.465
4488.64	0.0033	1.462
4465.49	0.0012	1.463
4442.34	0.0034	1.464
4419.20	0.0063	1.458
4396.05	0.0014	1.457
4372.90	0.0043	1.458
4349.75	0.0009	1.453
4326.61	0.0013	1.455
4303.46	0.0067	1.454
4280.31	0.0064	1.448
4257.17	0.0045	1.446
4234.02	0.0064	1.446
4210.87	0.0060	1.440
4187.72	0.0043	1.438
4164.58	0.0023	1.440
4141.43	0.0027	1.436
4118.28	0.0049	1.433
4095.13	0.0022	1.432
4071.99	0.0033	1.431
4048.84	0.0034	1.427
4025.69	0.0023	1.423
4002.55	0.0030	1.421
3979.40	0.0000	1.420
3956.25	0.0009	1.418
3933.10	0.0029	1.414
3909.96	0.0034	1.410
3886.81	0.0013	1.408
3863.66	0.0018	1.403
3840.52	0.0018	1.398
3817.37	0.0011	1.395
3794.22	0.0022	1.391
3771.07	0.0014	1.384
3747.93	0.0010	1.378
3724.78	0.0001	1.372
3701.63	0.0011	1.364
3678.48	0.0030	1.353
3655.34	0.0052	1.343
3632.19	0.0120	1.330
3609.04	0.0214	1.317
3585.90	0.0347	1.303
3562.75	0.0549	1.290
3539.60	0.0830	1.284
3516.45	0.1148	1.289
3502.95	0.1375	1.301
3501.02	0.1406	1.304
3499.09	0.1430	1.308
3497.16	0.1454	1.312
3495.24	0.1475	1.316
3493.31	0.1488	1.320
3491.38	0.1494	1.324
3489.45	0.1494	1.329
3487.52	0.1487	1.333
3485.59	0.1474	1.337
3483.66	0.1456	1.340
3481.73	0.1434	1.344
3479.80	0.1407	1.346
3470.16	0.1258	1.352
3466.30	0.1214	1.351
3464.37	0.1198	1.351
3462.44	0.1188	1.350
3460.51	0.1182	1.349
3458.59	0.1179	1.348
3456.66	0.1176	1.348
3454.73	0.1174	1.347
3447.01	0.1174	1.345
3423.86	0.1200	1.342
3400.72	0.1267	1.338
3377.57	0.1369	1.338
3354.42	0.1474	1.342
3331.28	0.1570	1.345
3308.13	0.1685	1.352
3284.98	0.1807	1.360
3261.83	0.1900	1.380
3238.69	0.1849	1.400
3215.54	0.1743	1.409
3192.39	0.1642	1.413
3169.24	0.1574	1.412
3146.10	0.1530	1.411
3122.95	0.1506	1.407
3099.80	0.1511	1.405
3076.66	0.1524	1.401
3053.51	0.1540	1.398
3030.36	0.1587	1.395
3007.21	0.1633	1.393
2984.07	0.1686	1.393
2960.92	0.1758	1.393
2937.77	0.1809	1.394
2914.62	0.1867	1.396
2891.48	0.1936	1.398
2868.33	0.1995	1.402
2845.18	0.2045	1.406
2822.04	0.2103	1.410
2798.89	0.2163	1.416
2775.74	0.2217	1.423
2752.59	0.2246	1.432
2729.45	0.2249	1.441
2706.30	0.2229	1.448
2683.15	0.2208	1.454
2660.01	0.2187	1.460
2636.86	0.2167	1.465
2613.71	0.2137	1.470
2590.56	0.2076	1.475
2567.42	0.2008	1.478
2544.27	0.1917	1.477
2521.12	0.1842	1.471
2497.97	0.1819	1.463
2474.83	0.1851	1.456
2451.68	0.1884	1.450
2428.53	0.1933	1.447
2405.39	0.1968	1.444
2382.24	0.2018	1.440
2359.09	0.2102	1.437
2335.94	0.2196	1.436
2312.80	0.2314	1.438
2289.65	0.2436	1.445
2266.50	0.2503	1.458
2243.35	0.2520	1.468
2220.21	0.2515	1.479
2197.06	0.2456	1.490
2173.91	0.2370	1.495
2150.77	0.2286	1.496
2127.62	0.2222	1.494
2104.47	0.2156	1.491
2081.32	0.2111	1.485
2058.18	0.2083	1.480
2035.03	0.2050	1.473
2011.88	0.2048	1.460
1988.73	0.2104	1.447
1965.59	0.2205	1.437
1942.44	0.2315	1.429
1919.29	0.2450	1.422
1896.15	0.2606	1.417
1873.00	0.2782	1.415
1849.85	0.2982	1.417
1826.70	0.3170	1.424
1803.56	0.3341	1.432
1780.41	0.3574	1.439
1757.26	0.3889	1.467
1734.12	0.4033	1.519
1710.97	0.3782	1.572
1687.82	0.3307	1.605
1664.67	0.2598	1.612
1641.53	0.2024	1.565
1618.38	0.1883	1.513
1595.23	0.1812	1.468
1572.08	0.1825	1.414
1548.94	0.1979	1.355
1525.79	0.2230	1.286
1502.64	0.2780	1.183
1479.50	0.4624	1.041
1456.35	0.9824	1.213
1454.42	1.0106	1.276
1452.49	1.0201	1.340
1450.56	1.0118	1.401
1448.63	0.9915	1.457
1446.70	0.9643	1.506
1433.20	0.7264	1.683
1410.05	0.4840	1.642
1386.91	0.4135	1.540
1363.76	0.4111	1.431
1340.61	0.4773	1.298
1317.46	0.7116	1.188
1294.32	1.0429	1.312
1271.17	1.2728	1.628
1269.24	1.2925	1.668
1267.31	1.3095	1.712
1265.38	1.3237	1.760
1263.45	1.3361	1.816
1261.53	1.3383	1.876
1259.60	1.3264	1.937
1257.67	1.3010	1.996
1255.74	1.2637	2.050
1253.81	1.2177	2.098
1251.88	1.1659	2.138
1248.02	1.0545	2.191
1224.88	0.6394	2.132
1201.73	0.5605	2.000
1178.58	0.5934	1.947
1155.43	0.6459	1.992
1153.50	0.6484	2.001
1151.58	0.6504	2.011
1149.65	0.6510	2.020
1147.72	0.6507	2.031
1145.79	0.6497	2.041
1143.86	0.6478	2.053
1141.93	0.6446	2.064
1140.00	0.6391	2.075
1132.29	0.6077	2.116
1109.14	0.4602	2.167
1085.99	0.3284	2.110
1062.84	0.2629	1.994
1049.34	0.2634	1.856
1047.41	0.2707	1.822
1045.48	0.2859	1.782
1043.56	0.3184	1.736
1041.63	0.3830	1.695
1039.70	0.4968	1.684
1037.77	0.6443	1.725
1035.84	0.7366	1.778
1033.91	0.7531	1.815
1031.98	0.7972	1.870
1030.05	0.8935	1.960
1028.12	0.9829	2.093
1026.19	0.9765	2.230
1024.27	0.8549	2.332
1022.34	0.6951	2.392
1020.41	0.5585	2.414
1016.55	0.3911	2.391
1014.62	0.3437	2.366
1012.69	0.3087	2.341
1010.76	0.2830	2.317
1008.83	0.2630	2.295
1006.91	0.2465	2.274
993.40	0.1909	2.173
970.26	0.1608	2.079
947.11	0.1404	2.026
923.96	0.1192	1.967
900.81	0.1276	1.905
877.67	0.1598	1.866
854.52	0.1837	1.838
831.37	0.2204	1.792
821.73	0.2707	1.766
819.80	0.2861	1.767
817.87	0.2919	1.761
815.94	0.2993	1.750
814.01	0.3274	1.741
812.08	0.3884	1.751
810.15	0.4738	1.805
808.22	0.5032	1.863
806.30	0.4456	1.894
804.37	0.3870	1.915
802.44	0.3596	1.926
800.51	0.3452	1.930
798.58	0.3330	1.931
796.65	0.3224	1.934
794.72	0.3089	1.932
785.08	0.2652	1.899
771.58	0.2882	1.837
769.65	0.2966	1.826
767.72	0.3070	1.815
765.79	0.3214	1.803
763.86	0.3406	1.792
761.93	0.3642	1.781
760.00	0.3937	1.771
758.07	0.4311	1.763
756.14	0.4802	1.761
754.21	0.5433	1.767
752.29	0.6244	1.791
750.36	0.7242	1.842
748.43	0.8386	1.942
746.50	0.9365	2.102
744.57	0.9097	2.262
742.64	0.7243	2.359
740.71	0.5048	2.395
738.78	0.3482	2.386
736.85	0.2638	2.353
734.93	0.2205	2.312
733.00	0.1974	2.274
731.07	0.1843	2.241
729.14	0.1798	2.218
715.64	0.1244	2.108