#FORMAT = WAVN n dn k dk
#DESCRIPTION = Refractive indices of amorphous nitric acid monohydrate at 153 K from 482 to 6443 cm<sup>-1</sup>.
#SUBSTANCE= a-NAM
#SAMPLEFORM= Thin Film
#TEMPERATURE= 153 K
#CONCENTRATION=   
#DOI=10.1029/94jd02388
#REFERENCE= O. B. Toon, M. A. Tolbert, B. G. Koehler, A. M. Middlebrook, and
## J. Jordan, Infrared optical constants of H2O-ice, amorphous acid
## solutions, and nitric acid hydrates, J. Geophys. Res., 99, 25631 - 25654,
## 1994.
#CONTACT= 
#COMMENT= Derived from 7 spectroscopic measurements of thin crystaline films.
 482 1.775 0.177 4.89E-002 4.9E-003
 501 1.767 0.177 7.80E-002 7.8E-003
 579 1.762 0.176 1.63E-001 1.6E-002
 609 1.729 0.173 1.95E-001 1.9E-002
 636 1.723 0.172 1.98E-001 2.0E-002
 663 1.680 0.168 2.29E-001 2.3E-002
 710 1.633 0.163 1.80E-001 1.8E-002
 741 1.667 0.167 1.50E-001 1.5E-002
 756 1.716 0.172 1.63E-001 1.6E-002
 760 1.735 0.174 1.81E-001 1.8E-002
 768 1.742 0.174 2.71E-001 2.7E-002
 771 1.699 0.170 3.33E-001 3.3E-002
 775 1.623 0.162 3.48E-001 3.5E-002
 787 1.549 0.155 1.81E-001 1.8E-002
 791 1.574 0.157 1.53E-001 1.5E-002
 798 1.620 0.162 1.45E-001 1.4E-002
 822 1.661 0.166 1.78E-001 1.8E-002
 868 1.657 0.166 2.19E-001 2.2E-002
 903 1.685 0.168 2.47E-001 2.5E-002
 922 1.694 0.169 3.47E-001 3.5E-002
 941 1.566 0.157 4.59E-001 4.6E-002
 957 1.401 0.140 4.35E-001 4.3E-002
 976 1.294 0.129 2.42E-001 2.4E-002
 984 1.313 0.131 1.66E-001 1.7E-002
 995 1.369 0.137 1.01E-001 1.0E-002
1007 1.419 0.142 7.78E-002 7.8E-003
1030 1.480 0.148 6.65E-002 6.6E-003
1084 1.553 0.155 5.18E-002 5.2E-003
1119 1.596 0.160 5.17E-002 5.2E-003
1153 1.643 0.164 5.67E-002 5.7E-003
1196 1.719 0.172 7.76E-002 7.8E-003
1223 1.787 0.179 1.15E-001 1.2E-002
1250 1.881 0.188 1.91E-001 1.9E-002
1265 1.956 0.196 2.89E-001 2.9E-002
1280 2.013 0.201 4.78E-001 4.8E-002
1296 1.953 0.195 8.15E-001 8.2E-002
1308 1.581 0.158 1.08E+000 1.1E-001
1319 1.155 0.115 9.06E-001 9.1E-002
1331 1.000 0.100 5.49E-001 5.5E-002
1342 1.075 0.108 2.99E-001 3.0E-002
1350 1.161 0.116 1.99E-001 2.0E-002
1354 1.210 0.121 1.73E-001 1.7E-002
1369 1.346 0.135 1.67E-001 1.7E-002
1388 1.434 0.143 2.17E-001 2.2E-002
1412 1.390 0.139 3.24E-001 3.2E-002
1427 1.300 0.130 3.01E-001 3.0E-002
1439 1.262 0.126 2.40E-001 2.4E-002
1458 1.278 0.128 1.37E-001 1.4E-002
1473 1.321 0.132 9.63E-002 9.6E-003
1500 1.382 0.138 7.00E-002 7.0E-003
1531 1.440 0.144 6.19E-002 6.2E-003
1570 1.510 0.151 7.45E-002 7.5E-003
1589 1.554 0.155 1.02E-001 1.0E-002
1616 1.585 0.159 1.78E-001 1.8E-002
1635 1.614 0.161 2.34E-001 2.3E-002
1651 1.625 0.162 3.60E-001 3.6E-002
1670 1.444 0.144 5.36E-001 5.4E-002
1682 1.251 0.125 5.38E-001 5.4E-002
1689 1.125 0.112 4.59E-001 4.6E-002
1701 1.069 0.107 2.29E-001 2.3E-002
1705 1.091 0.109 1.70E-001 1.7E-002
1712 1.153 0.115 1.03E-001 1.0E-002
1720 1.206 0.121 7.53E-002 7.5E-003
1736 1.272 0.127 6.12E-002 6.1E-003
1801 1.363 0.136 5.38E-002 5.4E-003
1874 1.396 0.140 4.97E-002 5.0E-003
1952 1.417 0.142 4.05E-002 4.1E-003
1998 1.430 0.143 3.80E-002 3.8E-003
2036 1.438 0.144 3.92E-002 3.9E-003
2098 1.448 0.145 3.71E-002 3.7E-003
2137 1.457 0.146 3.62E-002 3.6E-003
2191 1.470 0.147 3.90E-002 3.9E-003
2256 1.481 0.148 4.85E-002 4.9E-003
2303 1.483 0.148 5.59E-002 5.6E-003
2322 1.483 0.148 5.61E-002 5.6E-003
2368 1.489 0.149 5.72E-002 5.7E-003
2372 1.490 0.149 5.77E-002 5.8E-003
2411 1.497 0.150 6.36E-002 6.4E-003
2480 1.504 0.150 8.32E-002 8.3E-003
2522 1.503 0.150 9.66E-002 9.7E-003
2592 1.491 0.149 1.25E-001 1.3E-002
2681 1.450 0.145 1.38E-001 1.4E-002
2704 1.435 0.144 1.34E-001 1.3E-002
2750 1.415 0.141 1.19E-001 1.2E-002
2769 1.407 0.141 1.05E-001 1.0E-002
2812 1.422 0.142 7.71E-002 7.7E-003
2827 1.431 0.143 7.59E-002 7.6E-003
2854 1.441 0.144 8.35E-002 8.3E-003
2889 1.439 0.144 9.51E-002 9.5E-003
2920 1.432 0.143 9.68E-002 9.7E-003
2962 1.426 0.143 9.94E-002 9.9E-003
3001 1.409 0.141 9.80E-002 9.8E-003
3024 1.403 0.140 8.30E-002 8.3E-003
3051 1.415 0.141 6.96E-002 7.0E-003
3086 1.427 0.143 7.97E-002 8.0E-003
3124 1.416 0.142 8.77E-002 8.8E-003
3221 1.402 0.140 7.27E-002 7.3E-003
3329 1.409 0.141 5.63E-002 5.6E-003
3363 1.413 0.141 5.77E-002 5.8E-003
3406 1.415 0.141 6.51E-002 6.5E-003
3467 1.401 0.140 7.53E-002 7.5E-003
3498 1.390 0.139 7.58E-002 7.6E-003
3548 1.364 0.136 6.71E-002 6.7E-003
3587 1.351 0.135 3.31E-002 3.3E-003
3606 1.358 0.136 1.70E-002 1.7E-003
3622 1.367 0.137 9.47E-003 9.5E-004
3637 1.375 0.138 5.57E-003 5.6E-004
3653 1.381 0.138 3.53E-003 3.5E-004
3672 1.388 0.139 2.31E-003 2.3E-004
3707 1.396 0.140 1.55E-003 1.6E-004
3757 1.404 0.140 1.15E-003 1.2E-004
3815 1.411 0.141 1.01E-003 1.0E-004
3865 1.416 0.142 1.21E-003 1.2E-004
3934 1.421 0.142 1.73E-003 1.7E-004
3938 1.421 0.142 1.51E-003 1.5E-004
3942 1.421 0.142 1.71E-003 1.7E-004
3984 1.424 0.142 1.39E-003 1.4E-004
3988 1.424 0.142 1.66E-003 1.7E-004
3992 1.424 0.142 1.37E-003 1.4E-004
3996 1.424 0.142 1.67E-003 1.7E-004
4154 1.430 0.143 0.00E+000 0.0E+000
4460 1.440 0.144 0.00E+000 0.0E+000
5049 1.450 0.145 0.00E+000 0.0E+000
6443 1.460 0.146 0.00E+000 0.0E+000