# Material: Montmorillonite
# Reference:  Koike et al. MNRAS 246, 332 (1990)
#
# Name:        Montmorillonite
# Class:       Phyllosilicates
# State:       crystalline?
# Formula:     (Na,Ca)_{0.33}(Al,Mg)_{2}(Si_{4}O_{10})(OH)_{2}nH_{2}O
# ADS-link:    FIXME
# BibTeX-key:  FIXME
#
# Fields copied from the Oxford database
# sampleform = Pellet
# description = Refractive indices of montmorillonite
#
# The density is just the mean of tha range given on Wikipedia
#
# First line is N_lam and rho [g/cm^3], other lines are: lambda[um] n k
 2001  2.42
     0.100000      1.46585     0.168762
     0.100462      1.47119     0.168229
     0.100925      1.47654     0.167698
     0.101391      1.48191     0.167169
     0.101859      1.48731     0.166641
     0.102329      1.49272     0.166115
     0.102802      1.49815     0.165591
     0.103276      1.50313     0.164971
     0.103753      1.50735     0.164197
     0.104232      1.51158     0.163427
     0.104713      1.51583     0.162661
     0.105196      1.52009     0.161899
     0.105682      1.52435     0.161140
     0.106170      1.52864     0.160384
     0.106660      1.53293     0.159632
     0.107152      1.53724     0.158884
     0.107647      1.54155     0.158139
     0.108143      1.54588     0.157398
     0.108643      1.55023     0.156660
     0.109144      1.55458     0.155925
     0.109648      1.55895     0.155195
     0.110154      1.56332     0.154467
     0.110662      1.56772     0.153743
     0.111173      1.57212     0.153022
     0.111686      1.57653     0.152305
     0.112202      1.58096     0.151591
     0.112720      1.58360     0.150783
     0.113240      1.58403     0.149861
     0.113763      1.58447     0.148945
     0.114288      1.58491     0.148034
     0.114815      1.58535     0.147129
     0.115345      1.58579     0.146230
     0.115878      1.58622     0.145336
     0.116413      1.58666     0.144448
     0.116950      1.58710     0.143565
     0.117490      1.58754     0.142687
     0.118032      1.58798     0.141815
     0.118577      1.58842     0.140948
     0.119124      1.58886     0.140086
     0.119674      1.58929     0.139230
     0.120226      1.58973     0.138379
     0.120781      1.59017     0.137533
     0.121339      1.59061     0.136692
     0.121899      1.59105     0.135857
     0.122462      1.59149     0.135026
     0.123027      1.59193     0.134201
     0.123595      1.59237     0.133380
     0.124165      1.59250     0.135893
     0.124738      1.59250     0.139892
     0.125314      1.59927     0.142427
     0.125893      1.61178     0.143677
     0.126474      1.62278     0.144376
     0.127057      1.63103     0.144090
     0.127644      1.63864     0.143850
     0.128233      1.64273     0.143850
     0.128825      1.64682     0.143850
     0.129420      1.65460     0.143763
     0.130017      1.66270     0.143670
     0.130617      1.67073     0.143451
     0.131220      1.67873     0.143174
     0.131826      1.68671     0.142936
     0.132434      1.69462     0.142753
     0.133045      1.70208     0.142564
     0.133660      1.70555     0.142322
     0.134276      1.70904     0.142082
     0.134896      1.71461     0.141783
     0.135519      1.72235     0.141425
     0.136144      1.73009     0.141043
     0.136773      1.73774     0.140512
     0.137404      1.74541     0.139983
     0.138038      1.75587     0.139389
     0.138676      1.76724     0.138777
     0.139316      1.77722     0.138041
     0.139959      1.78470     0.137088
     0.140605      1.79221     0.136141
     0.141254      1.80304     0.134954
     0.141906      1.81416     0.133760
     0.142561      1.82348     0.132570
     0.143219      1.83080     0.131384
     0.143880      1.83814     0.130209
     0.144544      1.84893     0.128610
     0.145211      1.85980     0.127028
     0.145881      1.86891     0.124918
     0.146555      1.87606     0.122259
     0.147231      1.88323     0.119657
     0.147911      1.89029     0.117947
     0.148594      1.89737     0.116318
     0.149279      1.90441     0.114211
     0.149968      1.91139     0.111275
     0.150661      1.91839     0.108415
     0.151356      1.92531     0.105756
     0.152055      1.93221     0.103204
     0.152757      1.93866     0.100695
     0.153462      1.94169    0.0981211
     0.154170      1.94472    0.0956130
     0.154882      1.94740    0.0931119
     0.155597      1.94740    0.0902539
     0.156315      1.94740    0.0874835
     0.157036      1.94740    0.0847470
     0.157761      1.94740    0.0820248
     0.158489      1.94740    0.0793901
     0.159221      1.95178    0.0768614
     0.159956      1.95833    0.0744236
     0.160694      1.96491    0.0720630
     0.161436      1.95979    0.0701046
     0.162181      1.95331    0.0682369
     0.162930      1.94740    0.0662980
     0.163682      1.94740    0.0631509
     0.164437      1.94740    0.0601531
     0.165196      1.94740    0.0577494
     0.165959      1.94740    0.0568666
     0.166725      1.94740    0.0559974
     0.167494      1.94631    0.0538779
     0.168267      1.94319    0.0496601
     0.169044      1.94008    0.0457724
     0.169824      1.93567    0.0431155
     0.170608      1.92952    0.0418190
     0.171396      1.92339    0.0405615
     0.172187      1.91870    0.0394681
     0.172982      1.91567    0.0385483
     0.173780      1.91264    0.0376499
     0.174582      1.90964    0.0356542
     0.175388      1.90665    0.0325426
     0.176198      1.90366    0.0297025
     0.177011      1.89949    0.0277935
     0.177828      1.89359    0.0269626
     0.178649      1.88771    0.0261566
     0.179473      1.88206    0.0247729
     0.180302      1.87689    0.0222806
     0.181134      1.87174    0.0200391
     0.181970      1.86660    0.0180230
     0.182810      1.86099    0.0172056
     0.183654      1.85528    0.0166938
     0.184502      1.84958    0.0161971
     0.185353      1.84392    0.0151502
     0.186209      1.83828    0.0138273
     0.187068      1.83267    0.0126199
     0.187932      1.82606    0.0115509
     0.188799      1.81771    0.0106254
     0.189671      1.80941   0.00977410
     0.190546      1.80136   0.00904386
     0.191426      1.79589   0.00895474
     0.192309      1.79043   0.00886649
     0.193197      1.78498   0.00877912
     0.194089      1.73588   0.00588390
     0.194984      1.67384   0.00345105
     0.195884      1.61402   0.00202412
     0.196789      1.57890   0.00140118
     0.197697      1.57295   0.00120879
     0.198609      1.56785   0.00106624
     0.199526      1.56341  0.000957276
     0.200447      1.55947  0.000869679
     0.201372      1.55593  0.000797321
     0.202302      1.55273  0.000738568
     0.203236      1.54979  0.000687314
     0.204174      1.54708  0.000644089
     0.205116      1.54458  0.000606900
     0.206063      1.54224  0.000573533
     0.207014      1.54005  0.000543900
     0.207970      1.53800  0.000516600
     0.208930      1.53608  0.000493500
     0.209894      1.53424  0.000472500
     0.210863      1.53250  0.000452192
     0.211836      1.53087  0.000433994
     0.212814      1.52929  0.000415983
     0.213796      1.52780  0.000401100
     0.214783      1.52637  0.000386878
     0.215774      1.52501  0.000373655
     0.216770      1.52370  0.000361200
     0.217771      1.52244  0.000348600
     0.218776      1.52123  0.000338100
     0.219786      1.52008  0.000327600
     0.220800      1.51896  0.000317100
     0.221820      1.51789  0.000308700
     0.222844      1.51685  0.000298200
     0.223872      1.51585  0.000289800
     0.224905      1.51488  0.000283500
     0.225944      1.51394  0.000275100
     0.226986      1.51304  0.000268800
     0.228034      1.51216  0.000260400
     0.229087      1.51131  0.000254100
     0.230144      1.51049  0.000247800
     0.231206      1.50970  0.000241500
     0.232274      1.50892  0.000235200
     0.233346      1.50818  0.000231000
     0.234423      1.50745  0.000224700
     0.235505      1.50674  0.000220500
     0.236592      1.50605  0.000214485
     0.237684      1.50538  0.000210000
     0.238781      1.50473  0.000205800
     0.239883      1.50409  0.000201600
     0.240991      1.50347  0.000197400
     0.242103      1.50288  0.000193200
     0.243220      1.50230  0.000189000
     0.244343      1.50172  0.000184800
     0.245471      1.50117  0.000182700
     0.246604      1.50062  0.000178500
     0.247742      1.50009  0.000174300
     0.248886      1.49957  0.000172200
     0.250035      1.49908  0.000168000
     0.251189      1.49858  0.000165900
     0.252348      1.49809  0.000161700
     0.253513      1.49763  0.000159600
     0.254683      1.49717  0.000156213
     0.255859      1.49672  0.000153311
     0.257040      1.49629  0.000151200
     0.258226      1.49585  0.000149100
     0.259418      1.49543  0.000147000
     0.260615      1.49503  0.000142800
     0.261818      1.49463  0.000140700
     0.263027      1.49423  0.000138600
     0.264241      1.49385  0.000136500
     0.265461      1.49347  0.000134400
     0.266686      1.49311  0.000132300
     0.267917      1.49274  0.000130200
     0.269153      1.49239  0.000128100
     0.270396      1.49203  0.000126000
     0.271644      1.49170  0.000123900
     0.272898      1.49137  0.000123596
     0.274157      1.49104  0.000121800
     0.275423      1.49072  0.000119700
     0.276694      1.49040  0.000117600
     0.277971      1.49009  0.000115500
     0.279254      1.48979  0.000113400
     0.280543      1.48950  0.000112984
     0.281838      1.48920  0.000111300
     0.283139      1.48892  0.000109200
     0.284446      1.48864  0.000107100
     0.285759      1.48836  0.000107100
     0.287078      1.48809  0.000105000
     0.288403      1.48782  0.000104785
     0.289734      1.48756  0.000102900
     0.291072      1.48730  0.000100800
     0.292415      1.48705  9.87000e-05
     0.293765      1.48681  9.87000e-05
     0.295121      1.48657  9.66000e-05
     0.296483      1.48633  9.66000e-05
     0.297852      1.48609  9.45000e-05
     0.299226      1.48586  9.44478e-05
     0.300608      1.48563  9.24000e-05
     0.301995      1.48541  9.03000e-05
     0.303389      1.48519  9.03000e-05
     0.304790      1.48498  9.03000e-05
     0.306196      1.48476  8.82000e-05
     0.307610      1.48456  8.61000e-05
     0.309030      1.48434  8.61000e-05
     0.310456      1.48415  8.40000e-05
     0.311889      1.48394  8.40000e-05
     0.313329      1.48375  8.40000e-05
     0.314775      1.48356  8.19000e-05
     0.316228      1.48336  8.19000e-05
     0.317687      1.48319  7.98000e-05
     0.319154      1.48300  7.98000e-05
     0.320627      1.48282  7.77000e-05
     0.322107      1.48264  7.77000e-05
     0.323594      1.48247  7.77000e-05
     0.325087      1.48229  7.56000e-05
     0.326588      1.48212  7.56000e-05
     0.328095      1.48195  7.56000e-05
     0.329610      1.48179  7.35000e-05
     0.331131      1.48163  7.35000e-05
     0.332660      1.48146  7.14000e-05
     0.334195      1.48131  7.14000e-05
     0.335738      1.48115  7.14000e-05
     0.337287      1.48100  6.93000e-05
     0.338844      1.48085  6.93000e-05
     0.340408      1.48070  6.93000e-05
     0.341979      1.48055  6.80294e-05
     0.343558      1.48041  6.72000e-05
     0.345144      1.48027  6.72000e-05
     0.346737      1.48012  6.53977e-05
     0.348337      1.47999  6.51000e-05
     0.349945      1.47985  6.51000e-05
     0.351560      1.47972  6.48231e-05
     0.353183      1.47958  6.30000e-05
     0.354813      1.47945  6.30000e-05
     0.356451      1.47932  6.30000e-05
     0.358096      1.47919  6.30000e-05
     0.359749      1.47907  6.09000e-05
     0.361410      1.47895  6.09000e-05
     0.363078      1.47882  6.09000e-05
     0.364754      1.47870  5.88000e-05
     0.366438      1.47858  5.88000e-05
     0.368129      1.47846  5.88000e-05
     0.369828      1.47835  5.88000e-05
     0.371535      1.47823  5.67000e-05
     0.373250      1.47812  5.67000e-05
     0.374973      1.47801  5.67000e-05
     0.376704      1.47789  5.67000e-05
     0.378443      1.47779  5.46000e-05
     0.380189      1.47768  5.46000e-05
     0.381944      1.47757  5.46000e-05
     0.383707      1.47747  5.46000e-05
     0.385478      1.47736  5.46000e-05
     0.387258      1.47726  5.34311e-05
     0.389045      1.47716  5.25000e-05
     0.390841      1.47707  5.25000e-05
     0.392645      1.47696  5.25000e-05
     0.394457      1.47687  5.25000e-05
     0.396278      1.47677  5.04000e-05
     0.398107      1.47668  5.04000e-05
     0.399945      1.47659  5.04000e-05
     0.401791      1.47649  5.04000e-05
     0.403645      1.47640  5.04000e-05
     0.405509      1.47631  4.83000e-05
     0.407380      1.47622  4.83000e-05
     0.409261      1.47614  4.83000e-05
     0.411150      1.47604  4.83000e-05
     0.413047      1.47596  4.83000e-05
     0.414954      1.47587  4.83000e-05
     0.416869      1.47579  4.83000e-05
     0.418794      1.47571  4.62000e-05
     0.420727      1.47562  4.62000e-05
     0.422669      1.47554  4.62000e-05
     0.424620      1.47546  4.62000e-05
     0.426580      1.47539  4.62000e-05
     0.428549      1.47531  4.41000e-05
     0.430527      1.47523  4.41000e-05
     0.432514      1.47515  4.41000e-05
     0.434510      1.47507  4.41000e-05
     0.436516      1.47500  4.41000e-05
     0.438531      1.47493  4.41000e-05
     0.440555      1.47486  4.20017e-05
     0.442588      1.47478  4.20000e-05
     0.444631      1.47471  4.20000e-05
     0.446684      1.47464  4.20000e-05
     0.448745      1.47457  4.20000e-05
     0.450817      1.47450  4.20000e-05
     0.452898      1.47443  4.20000e-05
     0.454988      1.47436  3.99000e-05
     0.457088      1.47430  3.99000e-05
     0.459198      1.47423  3.99000e-05
     0.461318      1.47416  3.99000e-05
     0.463447      1.47410  3.99000e-05
     0.465586      1.47403  3.99000e-05
     0.467735      1.47396  3.99000e-05
     0.469894      1.47391  3.99000e-05
     0.472063      1.47385  3.99000e-05
     0.474242      1.47378  3.99000e-05
     0.476431      1.47373  3.78000e-05
     0.478630      1.47366  3.78000e-05
     0.480839      1.47360  3.78000e-05
     0.483059      1.47354  3.78000e-05
     0.485289      1.47348  3.78000e-05
     0.487529      1.47342  3.78000e-05
     0.489779      1.47336  3.78000e-05
     0.492040      1.47332  3.78000e-05
     0.494311      1.47325  3.57000e-05
     0.496592      1.47320  3.57000e-05
     0.498884      1.47315  3.57000e-05
     0.501187      1.47309  3.57000e-05
     0.503501      1.47303  3.57000e-05
     0.505825      1.47298  3.57000e-05
     0.508159      1.47293  3.57000e-05
     0.510505      1.47287  3.57000e-05
     0.512861      1.47282  3.57000e-05
     0.515229      1.47277  3.36000e-05
     0.517607      1.47272  3.36000e-05
     0.519996      1.47266  3.36000e-05
     0.522396      1.47261  3.36000e-05
     0.524807      1.47257  3.36000e-05
     0.527230      1.47252  3.36000e-05
     0.529663      1.47246  3.36000e-05
     0.532108      1.47242  3.36000e-05
     0.534564      1.47237  3.36000e-05
     0.537032      1.47232  3.36000e-05
     0.539511      1.47227  3.15000e-05
     0.542001      1.47223  3.15000e-05
     0.544503      1.47218  3.15000e-05
     0.547016      1.47213  3.15000e-05
     0.549541      1.47209  3.15000e-05
     0.552077      1.47204  3.15000e-05
     0.554626      1.47200  3.15000e-05
     0.557186      1.47196  3.15000e-05
     0.559758      1.47191  3.15000e-05
     0.562341      1.47187  3.15000e-05
     0.564937      1.47183  3.15000e-05
     0.567545      1.47178  3.15000e-05
     0.570164      1.47174  3.15000e-05
     0.572796      1.47170  3.15000e-05
     0.575440      1.47165  3.15000e-05
     0.578096      1.47161  3.15000e-05
     0.580764      1.47156  2.94000e-05
     0.583445      1.47152  2.94000e-05
     0.586138      1.47148  2.94000e-05
     0.588844      1.47144  2.94000e-05
     0.591562      1.47140  2.94000e-05
     0.594292      1.47136  2.94000e-05
     0.597035      1.47132  2.94000e-05
     0.599791      1.47128  2.94000e-05
     0.602560      1.47124  2.94000e-05
     0.605341      1.47121  2.94000e-05
     0.608135      1.47117  2.94000e-05
     0.610942      1.47113  2.94000e-05
     0.613762      1.47109  2.94000e-05
     0.616595      1.47105  2.94000e-05
     0.619441      1.47102  2.73000e-05
     0.622300      1.47098  2.73000e-05
     0.625173      1.47094  2.73000e-05
     0.628058      1.47090  2.73000e-05
     0.630957      1.47086  2.73000e-05
     0.633870      1.47083  2.73000e-05
     0.636796      1.47079  2.73000e-05
     0.639735      1.47076  2.73000e-05
     0.642688      1.47071  2.73000e-05
     0.645654      1.47068  2.73000e-05
     0.648634      1.47065  2.73000e-05
     0.651628      1.47061  2.73000e-05
     0.654636      1.47058  2.73000e-05
     0.657658      1.47055  2.73000e-05
     0.660693      1.47643  2.68169e-05
     0.663743      1.48233  2.63315e-05
     0.666807      1.48438  2.61986e-05
     0.669885      1.48408  2.62817e-05
     0.672977      1.48377  2.63651e-05
     0.676083      1.48346  2.64489e-05
     0.679204      1.48316  2.65331e-05
     0.682339      1.48285  2.66177e-05
     0.685488      1.48254  2.67027e-05
     0.688652      1.48222  2.67881e-05
     0.691831      1.48191  2.68738e-05
     0.695024      1.48159  2.69600e-05
     0.698232      1.48128  2.70465e-05
     0.701455      1.48096  2.71335e-05
     0.704693      1.48064  2.72209e-05
     0.707946      1.48032  2.73086e-05
     0.711214      1.47999  2.73968e-05
     0.714496      1.47967  2.74854e-05
     0.717794      1.47934  2.75744e-05
     0.721107      1.47901  2.76638e-05
     0.724436      1.47869  2.77536e-05
     0.727780      1.47835  2.78438e-05
     0.731139      1.47802  2.79344e-05
     0.734514      1.47769  2.80255e-05
     0.737904      1.47735  2.81170e-05
     0.741310      1.47702  2.82089e-05
     0.744732      1.47668  2.83012e-05
     0.748169      1.47634  2.83939e-05
     0.751623      1.47600  2.84871e-05
     0.755092      1.47565  2.85807e-05
     0.758578      1.47531  2.86748e-05
     0.762079      1.47496  2.87692e-05
     0.765597      1.47462  2.88641e-05
     0.769130      1.47426  2.89599e-05
     0.772681      1.47387  2.90614e-05
     0.776247      1.47347  2.91634e-05
     0.779830      1.47307  2.92659e-05
     0.783430      1.47267  2.93688e-05
     0.787046      1.47227  2.94722e-05
     0.790679      1.47187  2.95761e-05
     0.794328      1.47146  2.96805e-05
     0.797995      1.47105  2.97854e-05
     0.801678      1.47064  2.98907e-05
     0.805378      1.47023  2.99965e-05
     0.809096      1.46982  3.01028e-05
     0.812831      1.46940  3.02096e-05
     0.816582      1.46898  3.03169e-05
     0.820352      1.46856  3.04247e-05
     0.824138      1.46814  3.05330e-05
     0.827942      1.46772  3.06418e-05
     0.831764      1.46729  3.07511e-05
     0.835603      1.46686  3.08609e-05
     0.839460      1.46644  3.09712e-05
     0.843335      1.46600  3.10820e-05
     0.847227      1.46557  3.11934e-05
     0.851138      1.46514  3.13052e-05
     0.855067      1.46470  3.14175e-05
     0.859013      1.46426  3.15304e-05
     0.862979      1.46416  3.16504e-05
     0.866962      1.46456  3.17803e-05
     0.870964      1.46495  3.19108e-05
     0.874984      1.46535  3.20418e-05
     0.879023      1.46575  3.21735e-05
     0.883080      1.46615  3.23058e-05
     0.887156      1.46655  3.24387e-05
     0.891251      1.46696  3.25723e-05
     0.895365      1.46737  3.27064e-05
     0.899498      1.46778  3.28412e-05
     0.903649      1.46819  3.29765e-05
     0.907821      1.46860  3.31125e-05
     0.912011      1.46901  3.32492e-05
     0.916220      1.46943  3.33864e-05
     0.920450      1.46985  3.35243e-05
     0.924698      1.47027  3.36629e-05
     0.928966      1.47069  3.38020e-05
     0.933254      1.47112  3.39419e-05
     0.937562      1.47154  3.40823e-05
     0.941890      1.47197  3.42234e-05
     0.946237      1.47240  3.43652e-05
     0.950605      1.47283  3.45076e-05
     0.954993      1.47327  3.46507e-05
     0.959401      1.47370  3.47944e-05
     0.963829      1.47414  3.49388e-05
     0.968278      1.47392  3.50840e-05
     0.972747      1.47335  3.52301e-05
     0.977237      1.47278  3.53768e-05
     0.981748      1.47220  3.55241e-05
     0.986279      1.47163  3.56722e-05
     0.990832      1.47105  3.58209e-05
     0.995405      1.47046  3.59703e-05
      1.00000      1.46988  3.61204e-05
      1.00462      1.46929  3.62712e-05
      1.00925      1.46870  3.64227e-05
      1.01391      1.46811  3.65749e-05
      1.01859      1.46751  3.67278e-05
      1.02329      1.46692  3.68815e-05
      1.02802      1.46632  3.70358e-05
      1.03276      1.46571  3.71908e-05
      1.03753      1.46511  3.73465e-05
      1.04232      1.46450  3.75030e-05
      1.04713      1.46400  3.76553e-05
      1.05196      1.46400  3.77874e-05
      1.05682      1.46400  3.79201e-05
      1.06170      1.46400  3.80534e-05
      1.06660      1.46400  3.81874e-05
      1.07152      1.46400  3.83219e-05
      1.07647      1.46400  3.84571e-05
      1.08143      1.46400  3.85929e-05
      1.08643      1.46400  3.87293e-05
      1.09144      1.46400  3.88664e-05
      1.09648      1.46400  3.90040e-05
      1.10154      1.46400  3.91424e-05
      1.10662      1.46400  3.92813e-05
      1.11173      1.46400  3.94209e-05
      1.11686      1.46400  3.95612e-05
      1.12202      1.46400  3.97021e-05
      1.12720      1.46400  3.98436e-05
      1.13240      1.46400  3.99858e-05
      1.13763      1.46400  4.01286e-05
      1.14288      1.46400  4.02722e-05
      1.14815      1.46400  4.04163e-05
      1.15345      1.46382  4.05360e-05
      1.15878      1.46352  4.06401e-05
      1.16413      1.46323  4.07447e-05
      1.16950      1.46293  4.08498e-05
      1.17490      1.46263  4.09553e-05
      1.18032      1.46233  4.10613e-05
      1.18577      1.46202  4.11679e-05
      1.19124      1.46172  4.12749e-05
      1.19674      1.46141  4.13824e-05
      1.20226      1.46111  4.14904e-05
      1.20781      1.46080  4.15989e-05
      1.21339      1.46049  4.17079e-05
      1.21899      1.46018  4.18174e-05
      1.22462      1.45986  4.19274e-05
      1.23027      1.45955  4.20379e-05
      1.23595      1.45923  4.21490e-05
      1.24165      1.45892  4.22605e-05
      1.24738      1.45802  4.24815e-05
      1.25314      1.45699  4.27268e-05
      1.25893      1.45596  4.29733e-05
      1.26474      1.45493  4.32210e-05
      1.27057      1.45389  4.34697e-05
      1.27644      1.45285  4.37196e-05
      1.28233      1.45180  4.39707e-05
      1.28825      1.45074  4.42229e-05
      1.29420      1.44968  4.44763e-05
      1.30017      1.44862  4.47309e-05
      1.30617      1.44755  4.49866e-05
      1.31220      1.44648  4.52436e-05
      1.31826      1.44540  4.55017e-05
      1.32434      1.44432  4.57610e-05
      1.33045      1.44343  4.61268e-05
      1.33660      1.44343  4.69586e-05
      1.34276      1.44343  4.77942e-05
      1.34896      1.44343  4.86337e-05
      1.35519      1.44343  4.94770e-05
      1.36144      1.44343  5.03243e-05
      1.36773      1.44343  5.11754e-05
      1.37404      1.44673  5.28026e-05
      1.38038      1.46178  5.71793e-05
      1.38676      1.45916  6.03652e-05
      1.39316      1.45346  6.33563e-05
      1.39959      1.44774  6.62487e-05
      1.40605      1.44198  6.84927e-05
      1.41254      1.43621  7.07469e-05
      1.41906      1.43262  7.16009e-05
      1.42561      1.43151  7.08738e-05
      1.43219      1.43039  7.01432e-05
      1.43880      1.42927  6.94093e-05
      1.44544      1.42815  6.86720e-05
      1.45211      1.42702  6.79313e-05
      1.45881      1.42588  6.71872e-05
      1.46555      1.42474  6.64397e-05
      1.47231      1.42359  6.56887e-05
      1.47911      1.42286  6.49185e-05
      1.48594      1.42286  6.41169e-05
      1.49279      1.42286  6.33117e-05
      1.49968      1.42286  6.25028e-05
      1.50661      1.42286  6.16901e-05
      1.51356      1.42286  6.08737e-05
      1.52055      1.42286  6.00535e-05
      1.52757      1.42286  5.92295e-05
      1.53462      1.42065  5.87795e-05
      1.54170      1.41802  5.83965e-05
      1.54882      1.41538  5.80117e-05
      1.55597      1.41273  5.76251e-05
      1.56315      1.41006  5.72367e-05
      1.57036      1.40739  5.68466e-05
      1.57761      1.40470  5.64546e-05
      1.58489      1.40199  5.60609e-05
      1.59221      1.39928  5.56653e-05
      1.59956      1.39705  5.53237e-05
      1.60694      1.39666  5.51855e-05
      1.61436      1.39626  5.50466e-05
      1.62181      1.39586  5.49072e-05
      1.62930      1.39545  5.47671e-05
      1.63682      1.39505  5.46263e-05
      1.64437      1.39464  5.44849e-05
      1.65196      1.39423  5.43428e-05
      1.65959      1.39382  5.42001e-05
      1.66725      1.39341  5.40567e-05
      1.67494      1.39299  5.39127e-05
      1.68267      1.39257  5.37680e-05
      1.69044      1.39215  5.36226e-05
      1.69824      1.39147  5.39228e-05
      1.70608      1.39062  5.44851e-05
      1.71396      1.38977  5.50501e-05
      1.72187      1.38892  5.56176e-05
      1.72982      1.38806  5.61877e-05
      1.73780      1.38720  5.67605e-05
      1.74582      1.38633  5.73359e-05
      1.75388      1.38546  5.79140e-05
      1.76198      1.38459  5.84947e-05
      1.77011      1.38371  5.90782e-05
      1.77828      1.38283  5.96643e-05
      1.78649      1.38194  6.02531e-05
      1.79473      1.38081  6.10853e-05
      1.80302      1.37958  6.20067e-05
      1.81134      1.37834  6.29324e-05
      1.81970      1.37710  6.38624e-05
      1.82810      1.37586  6.47967e-05
      1.83654      1.37461  6.57352e-05
      1.84502      1.37335  6.66782e-05
      1.85353      1.37209  6.76254e-05
      1.86209      1.34398  8.61731e-05
      1.87068      1.36184  9.29678e-05
      1.87932      1.36189  0.000102086
      1.88799      1.34130  0.000113893
      1.89671      1.24268  0.000207280
      1.90546      1.23125  0.000211563
      1.91426      1.21977  0.000215866
      1.92309      1.20824  0.000220189
      1.93197      1.19665  0.000224532
      1.94089      1.18501  0.000221223
      1.94984      1.17332  0.000211625
      1.95884      1.16157  0.000201983
      1.96789      1.14976  0.000192296
      1.97697      1.13790  0.000182565
      1.98609      1.11873  0.000171249
      1.99526      1.09697  0.000159351
      2.00447      1.07511  0.000147398
      2.01372      1.05439  0.000139975
      2.02302      1.03370  0.000132972
      2.03236      1.01292  0.000125936
      2.04174     0.990724  0.000119119
      2.05116     0.962762  0.000113351
      2.06063     0.934672  0.000107557
      2.07014     0.910420  0.000103554
      2.07970     0.891140  0.000101861
      2.08930     0.871771  0.000100161
      2.09894     0.852312  9.84521e-05
      2.10863     0.832764  9.67357e-05
      2.11836     0.824431  9.75417e-05
      2.12814     0.816889  9.85369e-05
      2.13796     0.809311  9.95368e-05
      2.14783     0.801699  0.000100541
      2.15774     0.794051  0.000101550
      2.16770     0.786368  0.000102564
      2.17771     0.778649  0.000103582
      2.18776     0.770895  0.000104606
      2.19786     0.721669  0.000127351
      2.20800     0.739732  0.000144121
      2.21820     0.752319  0.000151524
      2.22844     0.758947  0.000148742
      2.23872     0.765606  0.000145947
      2.24905     0.772296  0.000143139
      2.25944     0.779016  0.000140318
      2.26986     0.785768  0.000137485
      2.28034     0.792551  0.000134638
      2.29087     0.799365  0.000131778
      2.30144     0.806210  0.000128904
      2.31206     0.823125  0.000131447
      2.32274     0.861129  0.000145364
      2.33346     0.888907  0.000160098
      2.34423     0.912343  0.000175223
      2.35505     0.917186  0.000193296
      2.36592     0.875250  0.000218651
      2.37684     0.848828  0.000236567
      2.38781     0.829299  0.000251190
      2.39883     0.809680  0.000265882
      2.40991     0.792089  0.000279374
      2.42103     0.776246  0.000291837
      2.43220     0.760329  0.000304357
      2.44343     0.744339  0.000316935
      2.45471     0.753552  0.000338776
      2.46604     0.775964  0.000365509
      2.47742     0.796958  0.000387922
      2.48886     0.815379  0.000402638
      2.50035     0.833884  0.000417422
      2.51189     0.852475  0.000432274
      2.52348     0.871152  0.000447194
      2.53513     0.891879  0.000463670
      2.54683     0.930065  0.000493359
      2.55859     0.968428  0.000523186
      2.57040      1.00580  0.000551505
      2.58226      1.03679  0.000570682
      2.59418      1.06791  0.000589948
      2.60615      1.09918  0.000609302
      2.61818      1.13281  0.000641385
      2.63027      1.16866  0.000685384
      2.64241      1.20468  0.000729586
      2.65461      1.24086  0.000767592
      2.66686      1.27722  0.000802395
      2.67917      1.31375  0.000837358
      2.69153      1.60187   0.00120199
      2.70396      1.93013   0.00207997
      2.71644      1.98847   0.00245726
      2.72898      2.08038   0.00313867
      2.74157      2.10779   0.00349526
      2.75423      2.16402   0.00415546
      2.76694      2.28320   0.00573805
      2.77971      2.46445    0.0130254
      2.79254      2.48983    0.0154267
      2.80543      2.41751    0.0183689
      2.81838      2.33299    0.0226270
      2.83139      2.25220    0.0250837
      2.84446      2.18627    0.0171053
      2.85759      2.15118    0.0156312
      2.87078      2.11987    0.0149781
      2.88403      2.08841    0.0143220
      2.89734      2.06461    0.0142325
      2.91072      2.04576    0.0145127
      2.92415      2.02682    0.0147942
      2.93765      2.00780    0.0150770
      2.95121      1.98869    0.0153611
      2.96483      1.97171    0.0155571
      2.97852      1.95727    0.0156477
      2.99226      1.94276    0.0157388
      3.00608      1.92819    0.0158303
      3.01995      1.91355    0.0159223
      3.03389      1.89885    0.0160146
      3.04789      1.84232    0.0141659
      3.06196      1.77084    0.0113797
      3.07610      1.77683    0.0110750
      3.09030      1.78284    0.0107689
      3.10456      1.78889    0.0104614
      3.11889      1.79620    0.0100457
      3.13329      1.80646   0.00937773
      3.14775      1.81676   0.00870669
      3.16228      1.81986   0.00806499
      3.17687      1.80600   0.00749642
      3.19154      1.79208   0.00692524
      3.20627      1.77492   0.00625549
      3.22107      1.75149   0.00539617
      3.23594      1.74429   0.00469462
      3.25087      1.74872   0.00410547
      3.26588      1.75083   0.00362493
      3.28095      1.74635   0.00345432
      3.29610      1.74186   0.00328293
      3.31131      1.73734   0.00311074
      3.32660      1.71775   0.00279339
      3.34195      1.69497   0.00244486
      3.35738      1.68827   0.00218698
      3.37287      1.69379   0.00199776
      3.38844      1.69933   0.00180766
      3.40408      1.64637   0.00125835
      3.41979      1.63394   0.00119672
      3.43558      1.62145   0.00113480
      3.45144      1.60890   0.00107260
      3.46737      1.60463   0.00104310
      3.48337      1.60097   0.00101601
      3.49945      1.59730  0.000988807
      3.51560      1.59362  0.000961474
      3.53183      1.58991  0.000934016
      3.54813      1.58619  0.000906431
      3.56451      1.58246  0.000878718
      3.58096      1.58346  0.000841964
      3.59749      1.58468  0.000804625
      3.61410      1.58591  0.000767114
      3.63078      1.58715  0.000729430
      3.64754      1.58615  0.000695376
      3.66438      1.58448  0.000662281
      3.68129      1.58281  0.000629034
      3.69828      1.57481  0.000611374
      3.71535      1.56390  0.000600762
      3.73250      1.55294  0.000590101
      3.74973      1.54192  0.000579391
      3.76704      1.53086  0.000568631
      3.78443      1.51975  0.000557822
      3.80189      1.50932  0.000549959
      3.81944      1.50291  0.000558786
      3.83707      1.49647  0.000567654
      3.85478      1.49000  0.000576563
      3.87258      1.48350  0.000585513
      3.89045      1.47697  0.000594504
      3.90841      1.47041  0.000603537
      3.92645      1.45680  0.000616829
      3.94457      1.44143  0.000631195
      3.96278      1.42600  0.000645628
      3.98107      1.41499  0.000654470
      3.99945      1.40912  0.000656824
      4.01791      1.40322  0.000659188
      4.03645      1.39729  0.000661564
      4.05509      1.39134  0.000663950
      4.07380      1.38536  0.000666348
      4.09261      1.37879  0.000679390
      4.11150      1.37132  0.000709005
      4.13048      1.36381  0.000738756
      4.14954      1.35627  0.000768644
      4.16869      1.34869  0.000798671
      4.18794      1.34108  0.000828836
      4.20727      1.32986  0.000865465
      4.22669      1.31833  0.000902715
      4.24620      1.30676  0.000940138
      4.26580      1.29243   0.00100452
      4.28549      1.27741   0.00107542
      4.30527      1.26231   0.00114666
      4.32514      1.24592   0.00120493
      4.34510      1.22899   0.00125865
      4.36516      1.21199   0.00131262
      4.38531      1.19757   0.00136253
      4.40555      1.18422   0.00141083
      4.42588      1.17081   0.00145935
      4.44631      1.15734   0.00150809
      4.46684      1.14846   0.00154152
      4.48745      1.14030   0.00157255
      4.50817      1.13211   0.00160372
      4.52898      1.12387   0.00163504
      4.54988      1.11560   0.00166649
      4.57088      1.11182   0.00168045
      4.59198      1.10887   0.00169114
      4.61318      1.10591   0.00170188
      4.63447      1.10294   0.00171267
      4.65586      1.09995   0.00172351
      4.67735      1.09695   0.00173440
      4.69894      1.09393   0.00174533
      4.72063      1.09371   0.00175619
      4.74242      1.09371   0.00176708
      4.76431      1.09371   0.00177802
      4.78630      1.09371   0.00178901
      4.80839      1.09371   0.00180005
      4.83059      1.09371   0.00181115
      4.85288      1.09371   0.00182229
      4.87528      1.09557   0.00183897
      4.89779      1.09779   0.00185679
      4.92040      1.10003   0.00187470
      4.94311      1.10227   0.00189269
      4.96592      1.10453   0.00191076
      4.98884      1.10680   0.00192891
      5.01187      1.10908   0.00194715
      5.03501      1.10914   0.00195498
      5.05825      1.10914   0.00196254
      5.08159      1.10914   0.00197014
      5.10505      1.10914   0.00197777
      5.12861      1.10914   0.00198544
      5.15229      1.10914   0.00199315
      5.17607      1.10914   0.00200089
      5.19996      1.10914   0.00200866
      5.22396      1.11246   0.00201253
      5.24807      1.11906   0.00201253
      5.27230      1.12570   0.00201253
      5.29663      1.13236   0.00201253
      5.32108      1.13906   0.00201253
      5.34564      1.15394   0.00204947
      5.37032      1.17021   0.00209259
      5.39511      1.18655   0.00213592
      5.42001      1.20286   0.00222612
      5.44503      1.21919   0.00233654
      5.47016      1.23559   0.00244746
      5.49541      1.25466   0.00256148
      5.52077      1.28176   0.00268390
      5.54626      1.30898   0.00280688
      5.57186      1.33633   0.00293044
      5.59758      1.34917   0.00297269
      5.62341      1.35940   0.00300011
      5.64937      1.36967   0.00302766
      5.67545      1.37998   0.00305534
      5.70164      1.39035   0.00308314
      5.72796      1.40076   0.00311107
      5.75440      1.42775   0.00322882
      5.78096      1.45769   0.00336252
      5.80764      1.48777   0.00349684
      5.83445      1.51362   0.00364571
      5.86138      1.53659   0.00380479
      5.88844      1.55967   0.00396460
      5.91562      1.58286   0.00412515
      5.94292      1.60615   0.00428643
      5.97035      1.64702   0.00465655
      5.99791      1.70698   0.00525368
      6.02560      1.76071   0.00611915
      6.05341      1.81022   0.00717101
      6.08135      1.93825    0.0110503
      6.10942      2.04695    0.0161503
      6.13762      2.12441    0.0313638
      6.16595      2.13281    0.0250054
      6.19441      2.10583    0.0189673
      6.22300      2.02079    0.0133717
      6.25173      1.92270   0.00893069
      6.28058      1.87418   0.00739400
      6.30957      1.83587   0.00651465
      6.33870      1.80795   0.00630447
      6.36796      1.77991   0.00609332
      6.39735      1.75173   0.00588119
      6.42688      1.72850   0.00587059
      6.45654      1.70796   0.00597141
      6.48634      1.68733   0.00607269
      6.51628      1.66660   0.00617443
      6.54636      1.64578   0.00627665
      6.57658      1.62320   0.00644560
      6.60693      1.59826   0.00670603
      6.63743      1.57321   0.00696767
      6.66807      1.54804   0.00723051
      6.69885      1.52881   0.00739376
      6.72977      1.51177   0.00751980
      6.76083      1.49465   0.00764643
      6.79204      1.47746   0.00777364
      6.82339      1.47429   0.00809028
      6.85488      1.47429   0.00845102
      6.88652      1.47429   0.00881343
      6.91831      1.47429   0.00917752
      6.95024      1.48836   0.00947325
      6.98232      1.50846   0.00974070
      7.01455      1.52864    0.0100094
      7.04693      1.54892    0.0102793
      7.07946      1.56930    0.0105505
      7.11213      1.59180    0.0110292
      7.14496      1.61472    0.0115417
      7.17794      1.63775    0.0120566
      7.21107      1.66088    0.0125738
      7.24436      1.68874    0.0131079
      7.27780      1.72376    0.0136664
      7.31139      1.75894    0.0142274
      7.34514      1.79428    0.0147911
      7.37904      1.82954    0.0153618
      7.41310      1.85168    0.0161821
      7.44732      1.87392    0.0170062
      7.48170      1.89626    0.0178341
      7.51623      1.91871    0.0186657
      7.55092      1.94126    0.0195013
      7.58578      1.97418    0.0206458
      7.62079      2.01112    0.0219105
      7.65597      2.04823    0.0231810
      7.69130      2.08550    0.0244573
      7.72681      2.12578    0.0259004
      7.76247      2.17309    0.0277406
      7.79830      2.22061    0.0295893
      7.83430      2.26836    0.0314466
      7.87046      2.31815    0.0333668
      7.90679      2.37619    0.0355358
      7.94328      2.43450    0.0377147
      7.97995      2.49178    0.0401589
      8.01678      2.53705    0.0450146
      8.05378      2.58254    0.0498927
      8.09096      2.62823    0.0547933
      8.12831      2.66431    0.0594816
      8.16582      2.69837    0.0641391
      8.20352      2.73258    0.0688180
      8.24138      2.76695    0.0735186
      8.27942      2.79476    0.0846882
      8.31764      2.82197    0.0966025
      8.35603      2.84931     0.108572
      8.39460      2.87624     0.124395
      8.43335      2.90277     0.144007
      8.47227      2.92942     0.163709
      8.51138      2.95264     0.197182
      8.55067      2.97362     0.239781
      8.59014      2.97811     0.291671
      8.62979      2.95753     0.357564
      8.66962      2.89188     0.448921
      8.70964      2.82978     0.528070
      8.74984      2.78922     0.587248
      8.79023      2.74946     0.648155
      8.83080      2.71094     0.711457
      8.87156      2.67200     0.764667
      8.91251      2.63224     0.790524
      8.95365      2.59229     0.816500
      8.99498      2.55300     0.768754
      9.03650      2.51358     0.716889
      9.07821      2.48093     0.760484
      9.12011      2.44929     0.820041
      9.16220      2.41881     0.898075
      9.20450      2.38915     0.989597
      9.24698      2.35879      1.09452
      9.28966      2.32713      1.22659
      9.33254      2.29980      1.36582
      9.37562      2.27424      1.50846
      9.41890      2.25713      1.65340
      9.46237      2.24508      1.77370
      9.50605      2.24292      1.83232
      9.54993      2.24076      1.89121
      9.59401      2.24057      1.72312
      9.63829      2.24057      1.53299
      9.68278      2.24057      1.39319
      9.72747      2.24057      1.29329
      9.77237      2.24057      1.21925
      9.81748      2.24057      1.14487
      9.86279      2.24057     0.859648
      9.90832      2.24057     0.719691
      9.95405      2.24057     0.619549
      10.0000      2.24057     0.517628
      10.0462      2.24057     0.378755
      10.0925      2.24057     0.311433
      10.1391      2.24057     0.270758
      10.1859      2.24057     0.239431
      10.2329      2.24057     0.211987
      10.2802      2.24057     0.191267
      10.3276      2.24057     0.174106
      10.3753      2.24057     0.161943
      10.4232      2.24057     0.149771
      10.4713      2.24057     0.138293
      10.5196      2.24057     0.127905
      10.5682      2.24057     0.130136
      10.6170      2.24057     0.132378
      10.6660      2.24057     0.134630
      10.7152      2.24057     0.160784
      10.7647      2.24057     0.196023
      10.8143      2.24057     0.220009
      10.8643      2.24057     0.236014
      10.9144      2.24057     0.246156
      10.9648      2.24057     0.218155
      11.0154      2.24057     0.168568
      11.0662      2.24057     0.142873
      11.1173      2.24057     0.129619
      11.1686      2.24057     0.130188
      11.2202      2.24057     0.135469
      11.2720      2.24057     0.141612
      11.3240      2.24057     0.148478
      11.3763      2.24057     0.139578
      11.4288      2.24057     0.122113
      11.4815      2.24057     0.100874
      11.5345      2.24057    0.0885697
      11.5878      2.24057    0.0866205
      11.6413      2.24057    0.0873089
      11.6950      2.24057    0.0940342
      11.7490      2.24057    0.0975227
      11.8032      2.24057    0.0981302
      11.8577      2.24057    0.0797708
      11.9124      2.24057    0.0660672
      11.9674      2.24057    0.0576591
      12.0226      2.24057    0.0536759
      12.0781      2.24057    0.0510398
      12.1339      2.24057    0.0501210
      12.1899      2.24057    0.0504603
      12.2462      2.24057    0.0508012
      12.3027      2.24057    0.0532510
      12.3595      2.24057    0.0598643
      12.4165      2.24057    0.0674332
      12.4738      2.24057    0.0749431
      12.5314      2.24057    0.0817097
      12.5893      2.24057    0.0871954
      12.6474      2.24057    0.0901455
      12.7057      2.24057    0.0837117
      12.7644      2.24057    0.0731943
      12.8233      2.24057    0.0644320
      12.8825      2.24057    0.0566944
      12.9420      2.24057    0.0531773
      13.0017      2.24057    0.0502804
      13.0617      2.24057    0.0485919
      13.1220      2.24057    0.0474427
      13.1826      2.24057    0.0462882
      13.2434      2.24057    0.0462706
      13.3045      2.24057    0.0472527
      13.3660      2.24057    0.0482393
      13.4276      2.24057    0.0492305
      13.4896      2.24057    0.0502433
      13.5519      2.24057    0.0513000
      13.6144      2.24057    0.0523617
      13.6773      2.24057    0.0534282
      13.7404      2.24057    0.0545119
      13.8038      2.24057    0.0564276
      13.8676      2.24057    0.0583521
      13.9316      2.24057    0.0615271
      13.9959      2.24057    0.0663865
      14.0605      2.24057    0.0721364
      14.1254      2.24057    0.0791847
      14.1906      2.24057    0.0861752
      14.2561      2.24057    0.0929559
      14.3219      2.24057    0.0948571
      14.3880      2.24057    0.0944990
      14.4544      2.24057    0.0941392
      14.5211      2.24057    0.0940682
      14.5881      2.24057    0.0940682
      14.6555      2.24057    0.0946044
      14.7231      2.24057     0.100671
      14.7911      2.24057     0.106766
      14.8594      2.24057     0.112549
      14.9279      2.24057     0.118062
      14.9968      2.24057     0.123600
      15.0661      2.24057     0.129932
      15.1356      2.24057     0.138493
      15.2055      2.24057     0.147094
      15.2757      2.24057     0.155879
      15.3462      2.24057     0.169298
      15.4170      2.24057     0.182778
      15.4882      2.24057     0.195388
      15.5597      2.24057     0.207857
      15.6315      2.24057     0.220383
      15.7036      2.24057     0.237569
      15.7761      2.24057     0.256009
      15.8489      2.24057     0.274039
      15.9221      2.24057     0.291877
      15.9956      2.24057     0.309797
      16.0694      2.24057     0.330800
      16.1436      2.24057     0.355567
      16.2181      2.24057     0.380448
      16.2930      2.24057     0.406584
      16.3682      2.24057     0.433450
      16.4437      2.24057     0.460440
      16.5196      2.24057     0.482675
      16.5959      2.24057     0.504403
      16.6725      2.24057     0.526232
      16.7494      2.24057     0.545887
      16.8267      2.24057     0.561773
      16.9044      2.24057     0.577732
      16.9824      2.24057     0.593765
      17.0608      2.24057     0.614860
      17.1396      2.24057     0.641736
      17.2187      2.24057     0.668737
      17.2982      2.24057     0.706054
      17.3780      2.24057     0.751618
      17.4582      2.24057     0.803961
      17.5388      2.24057     0.856205
      17.6198      2.24057     0.900922
      17.7011      2.24057     0.945845
      17.7828      2.24057     0.989197
      17.8649      2.24057      1.02979
      17.9473      2.24057      1.07057
      18.0302      2.24057      1.10909
      18.1134      2.24057      1.14262
      18.1970      2.24057      1.17631
      18.2810      2.24057      1.21320
      18.3654      2.24057      1.25141
      18.4502      2.24057      1.28612
      18.5353      2.24057      1.31054
      18.6209      2.24057      1.33508
      18.7068      2.24057      1.39955
      18.7932      2.24057      1.46756
      18.8799      2.24057      1.47684
      18.9671      2.24057      1.40221
      19.0546      2.24057      1.26502
      19.1426      2.24057      1.10429
      19.2309      2.24057     0.967219
      19.3197      2.24057     0.860589
      19.4089      2.24057     0.761440
      19.4984      2.24057     0.669306
      19.5884      2.24057     0.617999
      19.6789      2.24057     0.580442
      19.7697      2.24057     0.572675
      19.8609      2.24057     0.580157
      19.9526      2.24057     0.594333
      20.0447      2.24057     0.651062
      20.1372      2.24057     0.719591
      20.2302      2.24057     0.803986
      20.3236      2.24057     0.916353
      20.4174      2.24057      1.04593
      20.5116      2.24057      1.22798
      20.6063      2.24057      1.36934
      20.7014      2.24057      1.46558
      20.7970      2.24057      1.54704
      20.8930      2.24057      1.60537
      20.9894      2.24057      1.66725
      21.0863      2.24057      1.73645
      21.1836      2.24057      1.72914
      21.2814      2.24057      1.69013
      21.3796      2.38744      1.71677
      21.4783      2.85464      1.88684
      21.5774      3.09441      1.81853
      21.6770      3.14432      1.62025
      21.7771      3.15093      1.46333
      21.8776      3.14718      1.34341
      21.9786      3.14856      1.24285
      22.0800      3.15198      1.14486
      22.1820      3.14868      1.04522
      22.2844      3.13273     0.947847
      22.3872      3.10378     0.858780
      22.4905      3.06536     0.782383
      22.5944      3.02236     0.720052
      22.6986      2.97916     0.670960
      22.8034      2.93909     0.633012
      22.9087      2.90418     0.603392
      23.0144      2.87539     0.579127
      23.1206      2.85253     0.557359
      23.2274      2.83463     0.535754
      23.3346      2.82004     0.512867
      23.4423      2.80679     0.488014
      23.5505      2.79321     0.461342
      23.6592      2.77831     0.433688
      23.7684      2.76146     0.406079
      23.8781      2.74256     0.379197
      23.9883      2.72191     0.353973
      24.0991      2.69981     0.330714
      24.2103      2.67675     0.309588
      24.3220      2.65323     0.290761
      24.4343      2.62949     0.274079
      24.5471      2.60579     0.259476
      24.6604      2.58235     0.246779
      24.7742      2.55935     0.235918
      24.8886      2.53682     0.226671
      25.0035      2.51482     0.218873
      25.1189      2.49343     0.212530
      25.2348      2.47268     0.207503
      25.3513      2.45261     0.203656
      25.4683      2.43324     0.201012
      25.5859      2.41461     0.199503
      25.7040      2.39680     0.199004
      25.8226      2.37991     0.199563
      25.9418      2.36389     0.200955
      26.0615      2.34895     0.203095
      26.1818      2.33524     0.206020
      26.3027      2.32279     0.209272
      26.4241      2.31147     0.212684
      26.5461      2.30117     0.216043
      26.6686      2.29182     0.219029
      26.7917      2.28307     0.221483
      26.9153      2.27453     0.223311
      27.0396      2.26587     0.224526
      27.1644      2.25665     0.225375
      27.2898      2.24648     0.225989
      27.4157      2.23507     0.227115
      27.5423      2.22231     0.229260
      27.6694      2.20833     0.232895
      27.7971      2.19328     0.238695
      27.9254      2.17740     0.247380
      28.0543      2.16116     0.259672
      28.1838      2.14530     0.276346
      28.3139      2.13204     0.299576
      28.4446      2.12386     0.328919
      28.5759      2.12409     0.363202
      28.7078      2.13585     0.399289
      28.8403      2.16085     0.432115
      28.9734      2.19849     0.455075
      29.1072      2.24130     0.457376
      29.2415      2.27652     0.444605
      29.3765      2.30069     0.424820
      29.5121      2.31440     0.404024
      29.6483      2.32062     0.386647
      29.7852      2.32400     0.374995
      29.9226      2.32925     0.365937
      30.0608      2.33589     0.355963
      30.1995      2.34237     0.343918
      30.3389      2.34692     0.329527
      30.4790      2.34716     0.314375
      30.6196      2.34403     0.301244
      30.7610      2.33945     0.290521
      30.9030      2.33442     0.282135
      31.0456      2.32986     0.275729
      31.1889      2.32667     0.270255
      31.3329      2.32389     0.264582
      31.4775      2.32110     0.258696
      31.6228      2.31788     0.252643
      31.7687      2.31359     0.246999
      31.9154      2.30874     0.242319
      32.0627      2.30369     0.238629
      32.2107      2.29872     0.235979
      32.3594      2.29451     0.234871
      32.5087      2.29124     0.234305
      32.6588      2.28892     0.234033
      32.8095      2.28768     0.233814
      32.9610      2.28767     0.232920
      33.1131      2.28810     0.231340
      33.2660      2.28882     0.229047
      33.4195      2.28954     0.225753
      33.5738      2.28975     0.221710
      33.7287      2.28949     0.217243
      33.8844      2.28864     0.212433
      34.0408      2.28680     0.207660
      34.1979      2.28450     0.203158
      34.3558      2.28180     0.198954
      34.5144      2.27861     0.195283
      34.6737      2.27526     0.192074
      34.8337      2.27183     0.189252
      34.9945      2.26848     0.186995
      35.1560      2.26535     0.185151
      35.3183      2.26239     0.183544
      35.4813      2.25969     0.182194
      35.6451      2.25727     0.180958
      35.8096      2.25504     0.179773
      35.9749      2.25311     0.178641
      36.1410      2.25140     0.177361
      36.3078      2.24977     0.176006
      36.4754      2.24819     0.174562
      36.6438      2.24663     0.172931
      36.8129      2.24505     0.171211
      36.9828      2.24344     0.169399
      37.1535      2.24165     0.167597
      37.3250      2.23977     0.165798
      37.4973      2.23773     0.164014
      37.6704      2.23556     0.162304
      37.8443      2.23328     0.160656
      38.0189      2.23090     0.159266
      38.1944      2.22847     0.157979
      38.3707      2.22597     0.156856
      38.5478      2.22344     0.155931
      38.7258      2.22092     0.155122
      38.9045      2.21853     0.154631
      39.0841      2.21617     0.154303
      39.2645      2.21385     0.154120
      39.4457      2.21176     0.154154
      39.6278      2.20975     0.154272
      39.8107      2.20789     0.154573
      39.9945      2.20624     0.154941
      40.1791      2.20475     0.155358
      40.3645      2.20354     0.155826
      40.5509      2.20240     0.156311
      40.7380      2.20146     0.156839
      40.9261      2.20071     0.157307
      41.1150      2.20012     0.157715
      41.3047      2.19977     0.157983
      41.4954      2.19949     0.158203
      41.6869      2.19932     0.158261
      41.8794      2.19920     0.158246
      42.0727      2.19920     0.158076
      42.2669      2.19923     0.157780
      42.4620      2.19929     0.157385
      42.6580      2.19930     0.156817
      42.8549      2.19930     0.156201
      43.0527      2.19919     0.155426
      43.2514      2.19906     0.154617
      43.4510      2.19884     0.153682
      43.6516      2.19856     0.152728
      43.8531      2.19817     0.151746
      44.0555      2.19770     0.150739
      44.2588      2.19716     0.149711
      44.4631      2.19651     0.148689
      44.6684      2.19582     0.147669
      44.8745      2.19499     0.146747
      45.0817      2.19414     0.145841
      45.2898      2.19320     0.145046
      45.4988      2.19224     0.144260
      45.7088      2.19114     0.143582
      45.9198      2.19003     0.142933
      46.1318      2.18884     0.142467
      46.3447      2.18764     0.142034
      46.5586      2.18641     0.141726
      46.7735      2.18515     0.141486
      46.9894      2.18383     0.141436
      47.2063      2.18249     0.141476
      47.4242      2.18113     0.141728
      47.6431      2.17976     0.142107
      47.8630      2.17836     0.142756
      48.0839      2.17699     0.143639
      48.3059      2.17571     0.145024
      48.5289      2.17455     0.146699
      48.7528      2.17372     0.149050
      48.9779      2.17330     0.151690
      49.2040      2.17408     0.155135
      49.4311      2.17550     0.158448
      49.6592      2.17949     0.161187
      49.8885      2.18365     0.163449
      50.1187      2.18893     0.162212
      50.3501      2.19416     0.160904
      50.5825      2.19656     0.156996
      50.8159      2.19897     0.153069
      51.0505      2.19916     0.149828
      51.2861      2.19911     0.146645
      51.5229      2.19853     0.144344
      51.7607      2.19779     0.142306
      51.9996      2.19703     0.140753
      52.2396      2.19625     0.139516
      52.4807      2.19553     0.138436
      52.7230      2.19490     0.137575
      52.9663      2.19431     0.136773
      53.2108      2.19391     0.136190
      53.4564      2.19350     0.135605
      53.7032      2.19324     0.135117
      53.9511      2.19297     0.134627
      54.2001      2.19283     0.134142
      54.4503      2.19275     0.133658
      54.7016      2.19268     0.133197
      54.9541      2.19264     0.132762
      55.2077      2.19261     0.132320
      55.4626      2.19270     0.131847
      55.7186      2.19279     0.131373
      55.9758      2.19291     0.130904
      56.2341      2.19304     0.130435
      56.4937      2.19320     0.129927
      56.7545      2.19342     0.129380
      57.0164      2.19363     0.128832
      57.2796      2.19383     0.128291
      57.5440      2.19404     0.127748
      57.8096      2.19428     0.127152
      58.0764      2.19453     0.126534
      58.3445      2.19477     0.125905
      58.6138      2.19502     0.125254
      58.8844      2.19526     0.124600
      59.1562      2.19550     0.123888
      59.4292      2.19575     0.123162
      59.7035      2.19600     0.122425
      59.9791      2.19628     0.121669
      60.2560      2.19656     0.120910
      60.5341      2.19680     0.120163
      60.8135      2.19704     0.119414
      61.0942      2.19726     0.118644
      61.3762      2.19746     0.117828
      61.6595      2.19765     0.117009
      61.9441      2.19784     0.116172
      62.2300      2.19804     0.115326
      62.5173      2.19822     0.114479
      62.8058      2.19837     0.113646
      63.0957      2.19853     0.112809
      63.3870      2.19868     0.111940
      63.6796      2.19883     0.111041
      63.9735      2.19898     0.110137
      64.2688      2.19906     0.109248
      64.5654      2.19914     0.108359
      64.8634      2.19921     0.107468
      65.1628      2.19928     0.106592
      65.4636      2.19936     0.105712
      65.7658      2.19941     0.104823
      66.0693      2.19945     0.103921
      66.3743      2.19949     0.103015
      66.6807      2.19950     0.102120
      66.9885      2.19950     0.101229
      67.2977      2.19950     0.100333
      67.6083      2.19947    0.0994536
      67.9204      2.19943    0.0985731
      68.2339      2.19940    0.0976884
      68.5488      2.19936    0.0967883
      68.8652      2.19933    0.0958840
      69.1831      2.19929    0.0949835
      69.5024      2.19918    0.0941291
      69.8232      2.19908    0.0932707
      70.1455      2.19898    0.0924134
      70.4693      2.19888    0.0915701
      70.7946      2.19877    0.0907230
      71.1214      2.19866    0.0898781
      71.4496      2.19849    0.0890462
      71.7794      2.19832    0.0882106
      72.1107      2.19816    0.0873773
      72.4436      2.19799    0.0865570
      72.7780      2.19783    0.0857329
      73.1139      2.19766    0.0849104
      73.4514      2.19750    0.0841017
      73.7904      2.19734    0.0832893
      74.1310      2.19717    0.0824816
      74.4732      2.19694    0.0817167
      74.8169      2.19672    0.0809483
      75.1623      2.19649    0.0801770
      75.5092      2.19627    0.0794236
      75.8578      2.19605    0.0786667
      76.2079      2.19583    0.0779064
      76.5597      2.19561    0.0771881
      76.9130      2.19540    0.0764740
      77.2681      2.19518    0.0757565
      77.6247      2.19494    0.0750495
      77.9830      2.19470    0.0743467
      78.3430      2.19445    0.0736407
      78.7046      2.19420    0.0729395
      79.0679      2.19393    0.0722483
      79.4328      2.19366    0.0715538
      79.7995      2.19338    0.0708594
      80.1678      2.19312    0.0702092
      80.5378      2.19285    0.0695561
      80.9096      2.19258    0.0689000
      81.2831      2.19232    0.0682752
      81.6582      2.19206    0.0676626
      82.0352      2.19179    0.0670471
      82.4138      2.19152    0.0664342
      82.7942      2.19123    0.0658325
      83.1764      2.19095    0.0652280
      83.5603      2.19066    0.0646207
      83.9460      2.19037    0.0640261
      84.3335      2.19009    0.0634326
      84.7227      2.18981    0.0628364
      85.1138      2.18953    0.0622576
      85.5067      2.18925    0.0617308
      85.9014      2.18897    0.0612015
      86.2979      2.18869    0.0606698
      86.6962      2.18841    0.0601290
      87.0964      2.18814    0.0595826
      87.4984      2.18787    0.0590337
      87.9023      2.18759    0.0584837
      88.3080      2.18730    0.0579750
      88.7156      2.18700    0.0574639
      89.1251      2.18670    0.0569504
      89.5365      2.18641    0.0564486
      89.9498      2.18612    0.0559744
      90.3649      2.18583    0.0554979
      90.7821      2.18553    0.0550193
      91.2011      2.18526    0.0545474
      91.6220      2.18500    0.0540810
      92.0450      2.18474    0.0536124
      92.4698      2.18448    0.0531416
      92.8966      2.18420    0.0526981
      93.3254      2.18392    0.0522651
      93.7562      2.18364    0.0518301
      94.1890      2.18336    0.0513931
      94.6237      2.18308    0.0509665
      95.0605      2.18281    0.0505412
      95.4993      2.18253    0.0501140
      95.9401      2.18225    0.0496848
      96.3829      2.18198    0.0492859
      96.8278      2.18171    0.0488930
      97.2747      2.18144    0.0484983
      97.7237      2.18117    0.0481018
      98.1748      2.18090    0.0477145
      98.6279      2.18064    0.0473291
      99.0832      2.18037    0.0469420
      99.5405      2.18011    0.0465530
      100.000      2.12842    0.0441576
      100.462      2.12849    0.0439579
      100.925      2.12856    0.0437591
      101.391      2.12862    0.0435612
      101.859      2.12869    0.0433642
      102.329      2.12876    0.0431680
      102.802      2.12883    0.0429728
      103.276      2.12890    0.0427784
      103.753      2.12897    0.0425850
      104.232      2.12904    0.0423924
      104.713      2.12910    0.0422006
      105.196      2.12917    0.0420098
      105.682      2.12924    0.0418210
      106.170      2.12930    0.0416338
      106.660      2.12937    0.0414476
      107.152      2.12943    0.0412621
      107.647      2.12950    0.0410775
      108.143      2.12956    0.0408937
      108.643      2.12963    0.0407107
      109.144      2.12969    0.0405285
      109.648      2.12976    0.0403472
      110.154      2.12982    0.0401667
      110.662      2.12989    0.0399869
      111.173      2.12995    0.0398080
      111.686      2.13002    0.0396299
      112.202      2.13008    0.0394526
      112.720      2.13014    0.0392760
      113.240      2.13021    0.0391003
      113.763      2.13027    0.0389253
      114.288      2.13034    0.0387512
      114.815      2.13040    0.0385778
      115.345      2.13047    0.0384052
      115.878      2.13053    0.0382333
      116.413      2.13060    0.0380623
      116.950      2.13066    0.0378919
      117.490      2.13073    0.0377224
      118.032      2.13079    0.0375536
      118.577      2.13086    0.0373856
      119.124      2.13091    0.0372176
      119.674      2.13096    0.0370504
      120.226      2.13101    0.0368840
      120.781      2.13106    0.0367183
      121.339      2.13112    0.0365533
      121.899      2.13117    0.0363891
      122.462      2.13122    0.0362257
      123.027      2.13127    0.0360629
      123.595      2.13132    0.0359009
      124.165      2.13137    0.0357396
      124.738      2.13143    0.0355791
      125.314      2.13148    0.0354193
      125.893      2.13153    0.0352601
      126.474      2.13158    0.0351017
      127.057      2.13163    0.0349441
      127.644      2.13169    0.0347871
      128.233      2.13174    0.0346308
      128.825      2.13179    0.0344752
      129.420      2.13184    0.0343204
      130.017      2.13189    0.0341662
      130.617      2.13194    0.0340127
      131.220      2.13200    0.0338599
      131.826      2.13205    0.0337078
      132.434      2.13210    0.0335564
      133.045      2.13215    0.0334056
      133.660      2.13220    0.0332555
      134.276      2.13226    0.0331061
      134.896      2.13231    0.0329574
      135.519      2.13236    0.0328094
      136.144      2.13240    0.0326626
      136.773      2.13244    0.0325165
      137.404      2.13249    0.0323710
      138.038      2.13253    0.0322262
      138.676      2.13257    0.0320821
      139.316      2.13261    0.0319385
      139.959      2.13266    0.0317957
      140.605      2.13270    0.0316534
      141.254      2.13274    0.0315118
      141.906      2.13278    0.0313709
      142.561      2.13282    0.0312305
      143.219      2.13287    0.0310908
      143.880      2.13291    0.0309517
      144.544      2.13295    0.0308133
      145.211      2.13299    0.0306754
      145.881      2.13304    0.0305382
      146.555      2.13308    0.0304016
      147.231      2.13312    0.0302656
      147.911      2.13316    0.0301302
      148.594      2.13321    0.0299954
      149.279      2.13325    0.0298612
      149.968      2.13329    0.0297276
      150.661      2.13333    0.0295946
      151.356      2.13338    0.0294622
      152.055      2.13342    0.0293304
      152.757      2.13346    0.0291992
      153.462      2.13350    0.0290686
      154.170      2.13355    0.0289386
      154.882      2.13359    0.0288091
      155.597      2.13363    0.0286802
      156.315      2.13367    0.0285519
      157.036      2.13372    0.0284242
      157.761      2.13376    0.0282971
      158.489      2.13380    0.0281702
      159.221      2.13383    0.0280438
      159.956      2.13386    0.0279179
      160.694      2.13389    0.0277925
      161.436      2.13393    0.0276678
      162.181      2.13396    0.0275435
      162.930      2.13399    0.0274199
      163.682      2.13403    0.0272968
      164.437      2.13406    0.0271742
      165.196      2.13409    0.0270522
      165.959      2.13413    0.0269308
      166.725      2.13416    0.0268099
      167.494      2.13419    0.0266895
      168.267      2.13423    0.0265697
      169.044      2.13426    0.0264504
      169.824      2.13429    0.0263317
      170.608      2.13432    0.0262135
      171.396      2.13436    0.0260958
      172.187      2.13439    0.0259786
      172.982      2.13442    0.0258620
      173.780      2.13446    0.0257459
      174.582      2.13449    0.0256303
      175.388      2.13452    0.0255153
      176.198      2.13456    0.0254007
      177.011      2.13459    0.0252867
      177.828      2.13462    0.0251732
      178.649      2.13466    0.0250601
      179.473      2.13469    0.0249476
      180.302      2.13472    0.0248356
      181.134      2.13476    0.0247241
      181.970      2.13479    0.0246131
      182.810      2.13482    0.0245026
      183.654      2.13485    0.0243926
      184.502      2.13489    0.0242831
      185.353      2.13492    0.0241741
      186.209      2.13495    0.0240656
      187.068      2.13499    0.0239576
      187.932      2.13502    0.0238500
      188.799      2.13505    0.0237429
      189.671      2.13509    0.0236363
      190.546      2.13511    0.0235307
      191.426      2.13513    0.0234257
      192.309      2.13516    0.0233210
      193.197      2.13518    0.0232169
      194.089      2.13521    0.0231132
      194.984      2.13523    0.0230099
      195.884      2.13525    0.0229072
      196.789      2.13528    0.0228049
      197.697      2.13530    0.0227030
      198.609      2.13533    0.0226016
      199.526      2.13535    0.0225007
      200.447      2.13538    0.0224002
      201.372      2.13540    0.0223001
      202.302      2.13542    0.0222005
      203.236      2.13545    0.0221014
      204.174      2.13547    0.0220027
      205.116      2.13549    0.0219044
      206.063      2.13552    0.0218066
      207.014      2.13554    0.0217092
      207.970      2.13557    0.0216122
      208.930      2.13559    0.0215157
      209.894      2.13562    0.0214196
      210.863      2.13564    0.0213239
      211.836      2.13566    0.0212287
      212.814      2.13569    0.0211339
      213.796      2.13571    0.0210395
      214.783      2.13574    0.0209455
      215.774      2.13576    0.0208519
      216.770      2.13578    0.0207588
      217.771      2.13581    0.0206661
      218.776      2.13583    0.0205738
      219.786      2.13586    0.0204819
      220.800      2.13588    0.0203904
      221.820      2.13590    0.0202994
      222.844      2.13593    0.0202087
      223.872      2.13595    0.0201184
      224.905      2.13598    0.0200286
      225.944      2.13600    0.0199391
      226.986      2.13602    0.0198501
      228.034      2.13605    0.0197614
      229.087      2.13607    0.0196732
      230.144      2.13610    0.0195853
      231.206      2.13612    0.0194978
      232.274      2.13614    0.0194107
      233.346      2.13617    0.0193240
      234.423      2.13619    0.0192377
      235.505      2.13622    0.0191518
      236.592      2.13624    0.0190663
      237.684      2.13626    0.0189808
      238.781      2.13628    0.0188954
      239.883      2.13630    0.0188105
      240.991      2.13631    0.0187259
      242.103      2.13633    0.0186416
      243.220      2.13635    0.0185578
      244.343      2.13636    0.0184743
      245.471      2.13638    0.0183913
      246.604      2.13640    0.0183085
      247.742      2.13641    0.0182262
      248.886      2.13643    0.0181442
      250.035      2.13645    0.0180626
      251.189      2.13647    0.0179814
      252.348      2.13648    0.0179005
      253.513      2.13650    0.0178200
      254.683      2.13652    0.0177399
      255.859      2.13653    0.0176601
      257.040      2.13655    0.0175806
      258.226      2.13657    0.0175016
      259.418      2.13658    0.0174229
      260.615      2.13660    0.0173445
      261.818      2.13662    0.0172665
      263.027      2.13664    0.0171888
      264.241      2.13665    0.0171115
      265.461      2.13667    0.0170346
      266.686      2.13669    0.0169580
      267.917      2.13670    0.0168817
      269.153      2.13672    0.0168058
      270.396      2.13674    0.0167302
      271.644      2.13676    0.0166549
      272.898      2.13677    0.0165800
      274.157      2.13679    0.0165055
      275.423      2.13681    0.0164312
      276.694      2.13682    0.0163573
      277.971      2.13684    0.0162838
      279.254      2.13686    0.0162105
      280.543      2.13687    0.0161376
      281.838      2.13689    0.0160650
      283.139      2.13691    0.0159928
      284.446      2.13693    0.0159209
      285.759      2.13694    0.0158493
      287.078      2.13696    0.0157780
      288.403      2.13698    0.0157070
      289.734      2.13699    0.0156364
      291.072      2.13701    0.0155661
      292.415      2.13703    0.0154960
      293.765      2.13704    0.0154264
      295.121      2.13706    0.0153570
      296.483      2.13708    0.0152879
      297.852      2.13710    0.0152191
      299.226      2.13711    0.0151507
      300.608      2.13713    0.0150826
      301.995      2.13715    0.0150147
      303.389      2.13716    0.0149472
      304.789      2.13718    0.0148800
      306.196      2.13720    0.0148131
      307.610      2.13722    0.0147464
      309.030      2.13723    0.0146801
      310.456      2.13725    0.0146141
      311.889      2.13727    0.0145484
      313.329      2.13728    0.0144829
      314.775      2.13730    0.0144178
      316.228      2.13732    0.0143529
      317.687      2.13733    0.0142884
      319.154      2.13734    0.0142241
      320.627      2.13735    0.0141601
      322.107      2.13736    0.0140964
      323.594      2.13737    0.0140330
      325.087      2.13738    0.0139698
      326.588      2.13739    0.0139070
      328.095      2.13740    0.0138444
      329.610      2.13741    0.0137821
      331.131      2.13742    0.0137201
      332.660      2.13743    0.0136584
      334.195      2.13744    0.0135969
      335.738      2.13745    0.0135357
      337.287      2.13745    0.0134748
      338.844      2.13746    0.0134142
      340.408      2.13747    0.0133539
      341.979      2.13748    0.0132938
      343.558      2.13749    0.0132340
      345.144      2.13750    0.0131744
      346.737      2.13751    0.0131151
      348.337      2.13752    0.0130561
      349.945      2.13753    0.0129974
      351.560      2.13754    0.0129389
      353.183      2.13755    0.0128807
      354.813      2.13756    0.0128228
      356.451      2.13757    0.0127651
      358.096      2.13758    0.0127076
      359.749      2.13759    0.0126505
      361.410      2.13760    0.0125935
      363.078      2.13761    0.0125369
      364.754      2.13762    0.0124805
      366.438      2.13763    0.0124243
      368.129      2.13764    0.0123684
      369.828      2.13765    0.0123128
      371.535      2.13766    0.0122574
      373.250      2.13767    0.0122022
      374.973      2.13768    0.0121473
      376.704      2.13769    0.0120927
      378.443      2.13770    0.0120383
      380.189      2.13771    0.0119841
      381.944      2.13772    0.0119302
      383.707      2.13773    0.0118765
      385.478      2.13774    0.0118231
      387.258      2.13775    0.0117699
      389.045      2.13776    0.0117169
      390.841      2.13777    0.0116642
      392.645      2.13778    0.0116117
      394.457      2.13779    0.0115595
      396.278      2.13780    0.0115075
      398.107      2.13781    0.0114557
      399.945      2.13782    0.0114042
      401.791      2.13783    0.0113528
      403.645      2.13784    0.0113018
      405.509      2.13785    0.0112509
      407.380      2.13786    0.0112003
      409.261      2.13787    0.0111499
      411.150      2.13788    0.0110997
      413.048      2.13789    0.0110498
      414.954      2.13790    0.0110001
      416.869      2.13791    0.0109506
      418.794      2.13792    0.0109013
      420.727      2.13793    0.0108523
      422.669      2.13794    0.0108034
      424.620      2.13795    0.0107548
      426.580      2.13796    0.0107065
      428.549      2.13797    0.0106583
      430.527      2.13798    0.0106103
      432.514      2.13799    0.0105626
      434.510      2.13800    0.0105151
      436.516      2.13800    0.0104678
      438.531      2.13801    0.0104207
      440.555      2.13802    0.0103738
      442.588      2.13803    0.0103271
      444.631      2.13804    0.0102806
      446.684      2.13805    0.0102344
      448.745      2.13806    0.0101883
      450.817      2.13807    0.0101425
      452.898      2.13808    0.0100969
      454.988      2.13809    0.0100514
      457.088      2.13810    0.0100062
      459.198      2.13811   0.00996119
      461.318      2.13812   0.00991637
      463.447      2.13813   0.00987176
      465.586      2.13814   0.00982734
      467.735      2.13815   0.00978313
      469.894      2.13816   0.00973911
      472.063      2.13817   0.00969529
      474.242      2.13818   0.00965167
      476.431      2.13819   0.00960796
      478.630      2.13819   0.00956444
      480.839      2.13820   0.00952113
      483.059      2.13820   0.00947800
      485.289      2.13820   0.00943508
      487.529      2.13821   0.00939234
      489.779      2.13821   0.00934981
      492.040      2.13822   0.00930746
      494.311      2.13822   0.00926530
      496.592      2.13823   0.00922334
      498.884      2.13823   0.00918157
      501.187      2.13824   0.00913998
      503.501      2.13824   0.00909859
      505.825      2.13825   0.00905738
      508.159      2.13825   0.00901636
      510.505      2.13826   0.00897552
      512.861      2.13826   0.00893487
      515.229      2.13826   0.00889440
      517.607      2.13827   0.00885412
      519.996      2.13827   0.00881402
      522.396      2.13828   0.00877410
      524.807      2.13828   0.00873436
      527.230      2.13829   0.00869480
      529.663      2.13829   0.00865542
      532.108      2.13830   0.00861622
      534.564      2.13830   0.00857719
      537.032      2.13831   0.00853835
      539.511      2.13831   0.00849967
      542.001      2.13831   0.00846118
      544.503      2.13832   0.00842286
      547.016      2.13832   0.00838471
      549.541      2.13833   0.00834673
      552.077      2.13833   0.00830893
      554.626      2.13834   0.00827130
      557.186      2.13834   0.00823384
      559.758      2.13835   0.00819654
      562.341      2.13835   0.00815942
      564.937      2.13836   0.00812246
      567.545      2.13836   0.00808568
      570.164      2.13837   0.00804906
      572.796      2.13837   0.00801260
      575.440      2.13837   0.00797631
      578.096      2.13838   0.00794019
      580.764      2.13838   0.00790422
      583.445      2.13839   0.00786842
      586.138      2.13839   0.00783279
      588.844      2.13840   0.00779731
      591.562      2.13840   0.00776200
      594.292      2.13841   0.00772684
      597.035      2.13841   0.00769185
      599.791      2.13842   0.00765701
      602.560      2.13842   0.00762233
      605.341      2.13843   0.00758781
      608.135      2.13843   0.00755344
      610.942      2.13843   0.00751923
      613.762      2.13844   0.00748517
      616.595      2.13844   0.00745127
      619.441      2.13845   0.00741752
      622.300      2.13845   0.00738393
      625.173      2.13846   0.00735049
      628.058      2.13846   0.00731720
      630.957      2.13847   0.00728405
      633.870      2.13847   0.00725106
      636.796      2.13848   0.00721822
      639.735      2.13848   0.00718553
      642.688      2.13848   0.00715299
      645.654      2.13849   0.00712059
      648.634      2.13849   0.00708834
      651.628      2.13850   0.00705624
      654.636      2.13850   0.00702428
      657.658      2.13851   0.00699246
      660.693      2.13851   0.00696079
      663.743      2.13852   0.00692927
      666.807      2.13852   0.00689788
      669.885      2.13853   0.00686664
      672.977      2.13853   0.00683554
      676.083      2.13854   0.00680458
      679.204      2.13854   0.00677377
      682.339      2.13854   0.00674309
      685.488      2.13855   0.00671255
      688.652      2.13855   0.00668214
      691.831      2.13856   0.00665188
      695.024      2.13856   0.00662175
      698.232      2.13857   0.00659176
      701.455      2.13857   0.00656191
      704.693      2.13858   0.00653219
      707.946      2.13858   0.00650260
      711.214      2.13859   0.00647315
      714.496      2.13859   0.00644383
      717.794      2.13860   0.00641465
      721.107      2.13860   0.00638560
      724.436      2.13860   0.00635667
      727.780      2.13861   0.00632788
      731.139      2.13861   0.00629922
      734.514      2.13862   0.00627069
      737.904      2.13862   0.00624229
      741.310      2.13863   0.00621402
      744.732      2.13863   0.00618588
      748.169      2.13864   0.00615786
      751.623      2.13864   0.00612997
      755.092      2.13865   0.00610221
      758.578      2.13865   0.00607457
      762.079      2.13865   0.00604706
      765.597      2.13866   0.00601967
      769.130      2.13866   0.00599241
      772.681      2.13867   0.00596527
      776.247      2.13867   0.00593825
      779.830      2.13868   0.00591135
      783.430      2.13868   0.00588458
      787.046      2.13869   0.00585793
      790.679      2.13869   0.00583140
      794.328      2.13870   0.00580498
      797.995      2.13870   0.00577869
      801.678      2.13871   0.00575252
      805.378      2.13871   0.00572647
      809.096      2.13871   0.00570053
      812.831      2.13872   0.00567471
      816.582      2.13872   0.00564901
      820.352      2.13873   0.00562343
      824.138      2.13873   0.00559796
      827.942      2.13874   0.00557260
      831.764      2.13874   0.00554736
      835.603      2.13875   0.00552224
      839.460      2.13875   0.00549723
      843.335      2.13876   0.00547233
      847.227      2.13876   0.00544755
      851.138      2.13877   0.00542287
      855.067      2.13877   0.00539831
      859.014      2.13877   0.00537386
      862.979      2.13878   0.00534952
      866.962      2.13878   0.00532530
      870.964      2.13879   0.00530118
      874.984      2.13879   0.00527717
      879.023      2.13880   0.00525327
      883.080      2.13880   0.00522947
      887.156      2.13881   0.00520579
      891.251      2.13881   0.00518221
      895.365      2.13882   0.00515874
      899.498      2.13882   0.00513538
      903.649      2.13882   0.00511212
      907.821      2.13883   0.00508896
      912.011      2.13883   0.00506591
      916.221      2.13884   0.00504297
      920.450      2.13884   0.00502013
      924.698      2.13885   0.00499739
      928.966      2.13885   0.00497476
      933.254      2.13886   0.00495223
      937.562      2.13886   0.00492980
      941.890      2.13887   0.00490747
      946.237      2.13887   0.00488524
      950.605      2.13888   0.00486312
      954.993      2.13888   0.00484109
      959.401      2.13888   0.00481917
      963.829      2.13889   0.00479734
      968.278      2.13889   0.00477561
      972.747      2.13890   0.00475398
      977.237      2.13890   0.00473245
      981.748      2.13891   0.00471102
      986.279      2.13891   0.00468968
      990.832      2.13892   0.00466844
      995.405      2.13892   0.00464730
      1000.00      2.13893   0.00462625
