# Material: Serpentine
# Reference:  Koike et al. MNRAS 246, 332 (1990) + Mooney1985 + Glotch + Montmorillonite (UV part)
#
# Name:        Serpentine
# Class:       Phyllosilicates
# State:       crystalline?
# Formula:     (Mg,Fe)_{3}Si_{2}O_{5}OH{4}ee
# ADS-link:    https://ui.adsabs.harvard.edu/abs/1990MNRAS.246..332K
# BibTeX-key:  1990MNRAS.246..332K
# ADS-link:    https://ui.adsabs.harvard.edu/abs/1985Icar...64..493M
# BibTeX-key:  1985Icar...64..493M
# ADS-link:    https://ui.adsabs.harvard.edu/abs/2007Icar..192..605G
# BibTeX-key:  2007Icar..192..605G
#
# The density is just the mean of the range given on Wikipedia
#
# First line is N_lam and rho [g/cm^3], other lines are: lambda[um] n k
 2001 2.55
     0.100000      1.46585     0.168762
     0.100462      1.47119     0.168229
     0.100925      1.47654     0.167698
     0.101391      1.48191     0.167169
     0.101859      1.48731     0.166641
     0.102329      1.49272     0.166115
     0.102802      1.49815     0.165591
     0.103276      1.50313     0.164971
     0.103753      1.50735     0.164197
     0.104232      1.51158     0.163427
     0.104713      1.51583     0.162661
     0.105196      1.52009     0.161899
     0.105682      1.52435     0.161140
     0.106170      1.52864     0.160384
     0.106660      1.53293     0.159632
     0.107152      1.53724     0.158884
     0.107647      1.54155     0.158139
     0.108143      1.54588     0.157398
     0.108643      1.55023     0.156660
     0.109144      1.55458     0.155925
     0.109648      1.55895     0.155195
     0.110154      1.56332     0.154467
     0.110662      1.56772     0.153743
     0.111173      1.57212     0.153022
     0.111686      1.57653     0.152305
     0.112202      1.58096     0.151591
     0.112720      1.58360     0.150783
     0.113240      1.58403     0.149861
     0.113763      1.58447     0.148945
     0.114288      1.58491     0.148034
     0.114815      1.58535     0.147129
     0.115345      1.58579     0.146230
     0.115878      1.58622     0.145336
     0.116413      1.58666     0.144448
     0.116950      1.58710     0.143565
     0.117490      1.58754     0.142687
     0.118032      1.58798     0.141815
     0.118577      1.58842     0.140948
     0.119124      1.58886     0.140086
     0.119674      1.58929     0.139230
     0.120226      1.58973     0.138379
     0.120781      1.59017     0.137533
     0.121339      1.59061     0.136692
     0.121899      1.59105     0.135857
     0.122462      1.59149     0.135026
     0.123027      1.59193     0.134201
     0.123595      1.59237     0.133380
     0.124165      1.59250     0.135893
     0.124738      1.59250     0.139892
     0.125314      1.59927     0.142427
     0.125893      1.61178     0.143677
     0.126474      1.62278     0.144376
     0.127057      1.63103     0.144090
     0.127644      1.63864     0.143850
     0.128233      1.64273     0.143850
     0.128825      1.64682     0.143850
     0.129420      1.65460     0.143763
     0.130017      1.66270     0.143670
     0.130617      1.67073     0.143451
     0.131220      1.67873     0.143174
     0.131826      1.68671     0.142936
     0.132434      1.69462     0.142753
     0.133045      1.70208     0.142564
     0.133660      1.70555     0.142322
     0.134276      1.70904     0.142082
     0.134896      1.71461     0.141783
     0.135519      1.72235     0.141425
     0.136144      1.73009     0.141043
     0.136773      1.73774     0.140512
     0.137404      1.74541     0.139983
     0.138038      1.75587     0.139389
     0.138676      1.76724     0.138777
     0.139316      1.77722     0.138041
     0.139959      1.78470     0.137088
     0.140605      1.79221     0.136141
     0.141254      1.80304     0.134954
     0.141906      1.81416     0.133760
     0.142561      1.82348     0.132570
     0.143219      1.83080     0.131384
     0.143880      1.83814     0.130209
     0.144544      1.84893     0.128610
     0.145211      1.85980     0.127028
     0.145881      1.86891     0.124918
     0.146555      1.87606     0.122259
     0.147231      1.88323     0.119657
     0.147911      1.89029     0.117947
     0.148594      1.89737     0.116318
     0.149279      1.90441     0.114211
     0.149968      1.91139     0.111275
     0.150661      1.91839     0.108415
     0.151356      1.92531     0.105756
     0.152055      1.93221     0.103204
     0.152757      1.93866     0.100695
     0.153462      1.94169    0.0981211
     0.154170      1.94472    0.0956130
     0.154882      1.94740    0.0931119
     0.155597      1.94740    0.0902539
     0.156315      1.94740    0.0874835
     0.157036      1.94740    0.0847470
     0.157761      1.94740    0.0820248
     0.158489      1.94740    0.0793901
     0.159221      1.95178    0.0768614
     0.159956      1.95833    0.0744236
     0.160694      1.96491    0.0720630
     0.161436      1.95979    0.0701046
     0.162181      1.95331    0.0682369
     0.162930      1.94740    0.0662980
     0.163682      1.94740    0.0631509
     0.164437      1.94740    0.0601531
     0.165196      1.94740    0.0577494
     0.165959      1.94740    0.0568666
     0.166725      1.94740    0.0559974
     0.167494      1.94631    0.0538779
     0.168267      1.94319    0.0496601
     0.169044      1.94008    0.0457724
     0.169824      1.93567    0.0431155
     0.170608      1.92952    0.0418190
     0.171396      1.92339    0.0405615
     0.172187      1.91870    0.0394681
     0.172982      1.91567    0.0385483
     0.173780      1.91264    0.0376499
     0.174582      1.90964    0.0356542
     0.175388      1.90665    0.0325426
     0.176198      1.90366    0.0297025
     0.177011      1.89949    0.0277935
     0.177828      1.89359    0.0269626
     0.178649      1.88771    0.0261566
     0.179473      1.88206    0.0247729
     0.180302      1.87689    0.0222806
     0.181134      1.87174    0.0200391
     0.181970      1.86660    0.0180230
     0.182810      1.86099    0.0172056
     0.183654      1.85528    0.0166938
     0.184502      1.84958    0.0161971
     0.185353      1.84392    0.0151502
     0.186209      1.83828    0.0138273
     0.187068      1.83267    0.0126199
     0.187932      1.82606    0.0115509
     0.188799      1.81771    0.0106254
     0.189671      1.80941   0.00977410
     0.190546      1.80136   0.00904386
     0.191426      1.79589   0.00895474
     0.192309      1.79043   0.00886649
     0.193197      1.78498   0.00877912
     0.194089      1.73588   0.00588390
     0.194984      1.67384   0.00345105
     0.195884      1.61402   0.00202412
     0.196789      1.57890   0.00140118
     0.197697      1.57295   0.00120879
     0.198609      1.56785   0.00106624
     0.199526      1.56341  0.000957276
     0.200447      1.55947  0.000869679
     0.201372      1.55593  0.000797321
     0.202302      1.55273  0.000738568
     0.203236      1.54979  0.000687314
     0.204174      1.54708  0.000644089
     0.205116      1.54458  0.000606900
     0.206063      1.54224  0.000573533
     0.207014      1.54005  0.000543900
     0.207970      1.53800  0.000516600
     0.208930      1.53608  0.000493500
     0.209894      1.53424  0.000472500
     0.210863      1.53250  0.000452192
     0.211836      1.53087  0.000433994
     0.212814      1.52929  0.000415983
     0.213796      1.52780  0.000401100
     0.214783      1.52637  0.000386878
     0.215774      1.52501  0.000373655
     0.216770      1.52370  0.000361200
     0.217771      1.52244  0.000348600
     0.218776      1.52123  0.000338100
     0.219786      1.52008  0.000327600
     0.220800      1.51896  0.000317100
     0.221820      1.51789  0.000308700
     0.222844      1.51685  0.000298200
     0.223872      1.51585  0.000289800
     0.224905      1.51488  0.000283500
     0.225944      1.51394  0.000275100
     0.226986      1.51304  0.000268800
     0.228034      1.51216  0.000260400
     0.229087      1.51131  0.000254100
     0.230144      1.51049  0.000247800
     0.231206      1.50970  0.000241500
     0.232274      1.50892  0.000235200
     0.233346      1.50818  0.000231000
     0.234423      1.50745  0.000224700
     0.235505      1.50674  0.000220500
     0.236592      1.50605  0.000214485
     0.237684      1.50538  0.000210000
     0.238781      1.50473  0.000205800
     0.239883      1.50409  0.000201600
     0.240991      1.50347  0.000197400
     0.242103      1.50288  0.000193200
     0.243220      1.50230  0.000189000
     0.244343      1.50172  0.000184800
     0.245471      1.50117  0.000182700
     0.246604      1.50062  0.000178500
     0.247742      1.50009  0.000174300
     0.248886      1.49957  0.000172200
     0.250035      1.49908  0.000168000
     0.251189      1.49858  0.000165900
     0.252348      1.49809  0.000161700
     0.253513      1.49763  0.000159600
     0.254683      1.49717  0.000156213
     0.255859      1.49672  0.000153311
     0.257040      1.49629  0.000151200
     0.258226      1.49585  0.000149100
     0.259418      1.49543  0.000147000
     0.260615      1.49503  0.000142800
     0.261818      1.49463  0.000140700
     0.263027      1.49423  0.000138600
     0.264241      1.49385  0.000136500
     0.265461      1.49347  0.000134400
     0.266686      1.49311  0.000132300
     0.267917      1.49274  0.000130200
     0.269153      1.49239  0.000128100
     0.270396      1.49203  0.000126000
     0.271644      1.49170  0.000123900
     0.272898      1.49137  0.000123596
     0.274157      1.49104  0.000121800
     0.275423      1.49072  0.000119700
     0.276694      1.49040  0.000117600
     0.277971      1.49009  0.000115500
     0.279254      1.48979  0.000113400
     0.280543      1.48950  0.000112984
     0.281838      1.48920  0.000111300
     0.283139      1.48892  0.000109200
     0.284446      1.48864  0.000107100
     0.285759      1.48836  0.000107100
     0.287078      1.48809  0.000105000
     0.288403      1.48782  0.000104785
     0.289734      1.48756  0.000102900
     0.291072      1.48730  0.000100800
     0.292415      1.48705  9.87000e-05
     0.293765      1.48681  9.87000e-05
     0.295121      1.48657  9.66000e-05
     0.296483      1.48633  9.66000e-05
     0.297852      1.48609  9.45000e-05
     0.299226      1.48586  9.44478e-05
     0.300608      1.48563  9.24000e-05
     0.301995      1.48541  9.03000e-05
     0.303389      1.48519  9.03000e-05
     0.304790      1.48498  9.03000e-05
     0.306196      1.48476  8.82000e-05
     0.307610      1.48456  8.61000e-05
     0.309030      1.48434  8.61000e-05
     0.310456      1.48415  8.40000e-05
     0.311889      1.48394  8.40000e-05
     0.313329      1.48375  8.40000e-05
     0.314775      1.48356  8.19000e-05
     0.316228      1.48336  8.19000e-05
     0.317687      1.48319  7.98000e-05
     0.319154      1.48300  7.98000e-05
     0.320627      1.48282  7.77000e-05
     0.322107      1.48264  7.77000e-05
     0.323594      1.48247  7.77000e-05
     0.325087      1.48229  7.56000e-05
     0.326588      1.48212  7.56000e-05
     0.328095      1.48195  7.56000e-05
     0.329610      1.48179  7.35000e-05
     0.331131      1.48163  7.35000e-05
     0.332660      1.48146  7.14000e-05
     0.334195      1.48131  7.14000e-05
     0.335738      1.48115  7.14000e-05
     0.337287      1.48100  6.93000e-05
     0.338844      1.48085  6.93000e-05
     0.340408      1.48070  6.93000e-05
     0.341979      1.48055  6.80294e-05
     0.343558      1.48041  6.72000e-05
     0.345144      1.48027  6.72000e-05
     0.346737      1.48012  6.53977e-05
     0.348337      1.47999  6.51000e-05
     0.349945      1.47985  6.51000e-05
     0.351560      1.47972  6.48231e-05
     0.353183      1.47958  6.30000e-05
     0.354813      1.47945  6.30000e-05
     0.356451      1.47932  6.30000e-05
     0.358096      1.47919  6.30000e-05
     0.359749      1.47907  6.09000e-05
     0.361410      1.47895  6.09000e-05
     0.363078      1.47882  6.09000e-05
     0.364754      1.47870  5.88000e-05
     0.366438      1.47858  5.88000e-05
     0.368129      1.47846  5.88000e-05
     0.369828      1.47835  5.88000e-05
     0.371535      1.47823  5.67000e-05
     0.373250      1.47812  5.67000e-05
     0.374973      1.47801  5.67000e-05
     0.376704      1.47789  5.67000e-05
     0.378443      1.47779  5.46000e-05
     0.380189      1.47768  5.46000e-05
     0.381944      1.47757  5.46000e-05
     0.383707      1.47747  5.46000e-05
     0.385478      1.47736  5.46000e-05
     0.387258      1.47726  5.34311e-05
     0.389045      1.47716  5.25000e-05
     0.390841      1.47707  5.25000e-05
     0.392645      1.47696  5.25000e-05
     0.394457      1.47687  5.25000e-05
     0.396278      1.47677  5.04000e-05
     0.398107      1.47668  5.04000e-05
     0.399945      1.47659  5.04000e-05
     0.401791      1.47649  5.04000e-05
     0.403645      1.47640  5.04000e-05
     0.405509      1.47631  4.83000e-05
     0.407380      1.47622  4.83000e-05
     0.409261      1.47614  4.83000e-05
     0.411150      1.47604  4.83000e-05
     0.413047      1.47596  4.83000e-05
     0.414954      1.47587  4.83000e-05
     0.416869      1.47579  4.83000e-05
     0.418794      1.47571  4.62000e-05
     0.420727      1.47562  4.62000e-05
     0.422669      1.47554  4.62000e-05
     0.424620      1.47546  4.62000e-05
     0.426580      1.47539  4.62000e-05
     0.428549      1.47531  4.41000e-05
     0.430527      1.47523  4.41000e-05
     0.432514      1.47515  4.41000e-05
     0.434510      1.47507  4.41000e-05
     0.436516      1.47500  4.41000e-05
     0.438531      1.47493  4.41000e-05
     0.440555      1.47486  4.20017e-05
     0.442588      1.47478  4.20000e-05
     0.444631      1.47471  4.20000e-05
     0.446684      1.47464  4.20000e-05
     0.448745      1.47457  4.20000e-05
     0.450817      1.47450  4.20000e-05
     0.452898      1.47443  4.20000e-05
     0.454988      1.47436  3.99000e-05
     0.457088      1.47430  3.99000e-05
     0.459198      1.47423  3.99000e-05
     0.461318      1.47416  3.99000e-05
     0.463447      1.47410  3.99000e-05
     0.465586      1.47403  3.99000e-05
     0.467735      1.47396  3.99000e-05
     0.469894      1.47391  3.99000e-05
     0.472063      1.47385  3.99000e-05
     0.474242      1.47378  3.99000e-05
     0.476431      1.47373  3.78000e-05
     0.478630      1.47366  3.78000e-05
     0.480839      1.47360  3.78000e-05
     0.483059      1.47354  3.78000e-05
     0.485289      1.47348  3.78000e-05
     0.487529      1.47342  3.78000e-05
     0.489779      1.47336  3.78000e-05
     0.492040      1.47332  3.78000e-05
     0.494311      1.47325  3.57000e-05
     0.496592      1.47320  3.57000e-05
     0.498884      1.47315  3.57000e-05
     0.501187      1.47309  3.57000e-05
     0.503501      1.47303  3.57000e-05
     0.505825      1.47298  3.57000e-05
     0.508159      1.47293  3.57000e-05
     0.510505      1.47287  3.57000e-05
     0.512861      1.47282  3.57000e-05
     0.515229      1.47277  3.36000e-05
     0.517607      1.47272  3.36000e-05
     0.519996      1.47266  3.36000e-05
     0.522396      1.47261  3.36000e-05
     0.524807      1.47257  3.36000e-05
     0.527230      1.47252  3.36000e-05
     0.529663      1.47246  3.36000e-05
     0.532108      1.47242  3.36000e-05
     0.534564      1.47237  3.36000e-05
     0.537032      1.47232  3.36000e-05
     0.539511      1.47227  3.15000e-05
     0.542001      1.47223  3.15000e-05
     0.544503      1.47218  3.15000e-05
     0.547016      1.47213  3.15000e-05
     0.549541      1.47209  3.15000e-05
     0.552077      1.47204  3.15000e-05
     0.554626      1.47200  3.15000e-05
     0.557186      1.47196  3.15000e-05
     0.559758      1.47191  3.15000e-05
     0.562341      1.47187  3.15000e-05
     0.564937      1.47183  3.15000e-05
     0.567545      1.47178  3.15000e-05
     0.570164      1.47174  3.15000e-05
     0.572796      1.47170  3.15000e-05
     0.575440      1.47165  3.15000e-05
     0.578096      1.47161  3.15000e-05
     0.580764      1.47156  2.94000e-05
     0.583445      1.47152  2.94000e-05
     0.586138      1.47148  2.94000e-05
     0.588844      1.47144  2.94000e-05
     0.591562      1.47140  2.94000e-05
     0.594292      1.47136  2.94000e-05
     0.597035      1.47132  2.94000e-05
     0.599791      1.47128  2.94000e-05
     0.602560      1.47124  2.94000e-05
     0.605341      1.47121  2.94000e-05
     0.608135      1.47117  2.94000e-05
     0.610942      1.47113  2.94000e-05
     0.613762      1.47109  2.94000e-05
     0.616595      1.47105  2.94000e-05
     0.619441      1.47102  2.73000e-05
     0.622300      1.47098  2.73000e-05
     0.625173      1.47094  2.73000e-05
     0.628058      1.47090  2.73000e-05
     0.630957      1.47086  2.73000e-05
     0.633870      1.47083  2.73000e-05
     0.636796      1.47079  2.73000e-05
     0.639735      1.47076  2.73000e-05
     0.642688      1.47071  2.73000e-05
     0.645654      1.47068  2.73000e-05
     0.648634      1.47065  2.73000e-05
     0.651628      1.47061  2.73000e-05
     0.654636      1.47058  2.73000e-05
     0.657658      1.47055  2.73000e-05
     0.660693      1.47643  2.68169e-05
     0.663743      1.48233  2.63315e-05
     0.666807      1.48438  2.61986e-05
     0.669885      1.48408  2.62817e-05
     0.672977      1.48377  2.63651e-05
     0.676083      1.48346  2.64489e-05
     0.679204      1.48316  2.65331e-05
     0.682339      1.48285  2.66177e-05
     0.685488      1.48254  2.67027e-05
     0.688652      1.48222  2.67881e-05
     0.691831      1.48191  2.68738e-05
     0.695024      1.48159  2.69600e-05
     0.698232      1.48128  2.70465e-05
     0.701455      1.48096  2.71335e-05
     0.704693      1.48064  2.72209e-05
     0.707946      1.48032  2.73086e-05
     0.711214      1.47999  2.73968e-05
     0.714496      1.47967  2.74854e-05
     0.717794      1.47934  2.75744e-05
     0.721107      1.47901  2.76638e-05
     0.724436      1.47869  2.77536e-05
     0.727780      1.47835  2.78438e-05
     0.731139      1.47802  2.79344e-05
     0.734514      1.47769  2.80255e-05
     0.737904      1.47735  2.81170e-05
     0.741310      1.47702  2.82089e-05
     0.744732      1.47668  2.83012e-05
     0.748169      1.47634  2.83939e-05
     0.751623      1.47600  2.84871e-05
     0.755092      1.47565  2.85807e-05
     0.758578      1.47531  2.86748e-05
     0.762079      1.47496  2.87692e-05
     0.765597      1.47462  2.88641e-05
     0.769130      1.47426  2.89599e-05
     0.772681      1.47387  2.90614e-05
     0.776247      1.47347  2.91634e-05
     0.779830      1.47307  2.92659e-05
     0.783430      1.47267  2.93688e-05
     0.787046      1.47227  2.94722e-05
     0.790679      1.47187  2.95761e-05
     0.794328      1.47146  2.96805e-05
     0.797995      1.47105  2.97854e-05
     0.801678      1.47064  2.98907e-05
     0.805378      1.47023  2.99965e-05
     0.809096      1.46982  3.01028e-05
     0.812831      1.46940  3.02096e-05
     0.816582      1.46898  3.03169e-05
     0.820352      1.46856  3.04247e-05
     0.824138      1.46814  3.05330e-05
     0.827942      1.46772  3.06418e-05
     0.831764      1.46729  3.07511e-05
     0.835603      1.46686  3.08609e-05
     0.839460      1.46644  3.09712e-05
     0.843335      1.46600  3.10820e-05
     0.847227      1.46557  3.11934e-05
     0.851138      1.46514  3.13052e-05
     0.855067      1.46470  3.14175e-05
     0.859013      1.46426  3.15304e-05
     0.862979      1.46416  3.16504e-05
     0.866962      1.46456  3.17803e-05
     0.870964      1.46495  3.19108e-05
     0.874984      1.46535  3.20418e-05
     0.879023      1.46575  3.21735e-05
     0.883080      1.46615  3.23058e-05
     0.887156      1.46655  3.24387e-05
     0.891251      1.46696  3.25723e-05
     0.895365      1.46737  3.27064e-05
     0.899498      1.46778  3.28412e-05
     0.903649      1.46819  3.29765e-05
     0.907821      1.46860  3.31125e-05
     0.912011      1.46901  3.32492e-05
     0.916220      1.46943  3.33864e-05
     0.920450      1.46985  3.35243e-05
     0.924698      1.47027  3.36629e-05
     0.928966      1.47069  3.38020e-05
     0.933254      1.47112  3.39419e-05
     0.937562      1.47154  3.40823e-05
     0.941890      1.47197  3.42234e-05
     0.946237      1.47240  3.43652e-05
     0.950605      1.47283  3.45076e-05
     0.954993      1.47327  3.46507e-05
     0.959401      1.47370  3.47944e-05
     0.963829      1.47414  3.49388e-05
     0.968278      1.47392  3.50840e-05
     0.972747      1.47335  3.52301e-05
     0.977237      1.47278  3.53768e-05
     0.981748      1.47220  3.55241e-05
     0.986279      1.47163  3.56722e-05
     0.990832      1.47105  3.58209e-05
     0.995405      1.47046  3.59703e-05
      1.00000      1.46988  3.61204e-05
      1.00462      1.46929  3.62712e-05
      1.00925      1.46870  3.64227e-05
      1.01391      1.46811  3.65749e-05
      1.01859      1.46751  3.67278e-05
      1.02329      1.46692  3.68815e-05
      1.02802      1.46632  3.70358e-05
      1.03276      1.46571  3.71908e-05
      1.03753      1.46511  3.73465e-05
      1.04232      1.46450  3.75030e-05
      1.04713      1.46400  3.76553e-05
      1.05196      1.46400  3.77874e-05
      1.05682      1.46400  3.79201e-05
      1.06170      1.46400  3.80534e-05
      1.06660      1.46400  3.81874e-05
      1.07152      1.46400  3.83219e-05
      1.07647      1.46400  3.84571e-05
      1.08143      1.46400  3.85929e-05
      1.08643      1.46400  3.87293e-05
      1.09144      1.46400  3.88664e-05
      1.09648      1.46400  3.90040e-05
      1.10154      1.46400  3.91424e-05
      1.10662      1.46400  3.92813e-05
      1.11173      1.46400  3.94209e-05
      1.11686      1.46400  3.95612e-05
      1.12202      1.46400  3.97021e-05
      1.12720      1.46400  3.98436e-05
      1.13240      1.46400  3.99858e-05
      1.13763      1.46400  4.01286e-05
      1.14288      1.46400  4.02722e-05
      1.14815      1.46400  4.04163e-05
      1.15345      1.46382  4.05360e-05
      1.15878      1.46352  4.06401e-05
      1.16413      1.46323  4.07447e-05
      1.16950      1.46293  4.08498e-05
      1.17490      1.46263  4.09553e-05
      1.18032      1.46233  4.10613e-05
      1.18577      1.46202  4.11679e-05
      1.19124      1.46172  4.12749e-05
      1.19674      1.46141  4.13824e-05
      1.20226      1.46111  4.14904e-05
      1.20781      1.46080  4.15989e-05
      1.21339      1.46049  4.17079e-05
      1.21899      1.46018  4.18174e-05
      1.22462      1.45986  4.19274e-05
      1.23027      1.45955  4.20379e-05
      1.23595      1.45923  4.21490e-05
      1.24165      1.45892  4.22605e-05
      1.24738      1.45802  4.24815e-05
      1.25314      1.45699  4.27268e-05
      1.25893      1.45596  4.29733e-05
      1.26474      1.45493  4.32210e-05
      1.27057      1.45389  4.34697e-05
      1.27644      1.45285  4.37196e-05
      1.28233      1.45180  4.39707e-05
      1.28825      1.45074  4.42229e-05
      1.29420      1.44968  4.44763e-05
      1.30017      1.44862  4.47309e-05
      1.30617      1.44755  4.49866e-05
      1.31220      1.44648  4.52436e-05
      1.31826      1.44540  4.55017e-05
      1.32434      1.44432  4.57610e-05
      1.33045      1.44343  4.61268e-05
      1.33660      1.44343  4.69586e-05
      1.34276      1.44343  4.77942e-05
      1.34896      1.44343  4.86337e-05
      1.35519      1.44343  4.94770e-05
      1.36144      1.44343  5.03243e-05
      1.36773      1.44343  5.11754e-05
      1.37404      1.44673  5.28026e-05
      1.38038      1.46178  5.71793e-05
      1.38676      1.45916  6.03652e-05
      1.39316      1.45346  6.33563e-05
      1.39959      1.44774  6.62487e-05
      1.40605      1.44198  6.84927e-05
      1.41254      1.43621  7.07469e-05
      1.41906      1.43262  7.16009e-05
      1.42561      1.43151  7.08738e-05
      1.43219      1.43039  7.01432e-05
      1.43880      1.42927  6.94093e-05
      1.44544      1.42815  6.86720e-05
      1.45211      1.42702  6.79313e-05
      1.45881      1.42588  6.71872e-05
      1.46555      1.42474  6.64397e-05
      1.47231      1.42359  6.56887e-05
      1.47911      1.42286  6.49185e-05
      1.48594      1.42286  6.41169e-05
      1.49279      1.42286  6.33117e-05
      1.49968      1.42286  6.25028e-05
      1.50661      1.42286  6.16901e-05
      1.51356      1.42286  6.08737e-05
      1.52055      1.42286  6.00535e-05
      1.52757      1.42286  5.92295e-05
      1.53462      1.42065  5.87795e-05
      1.54170      1.41802  5.83965e-05
      1.54882      1.41538  5.80117e-05
      1.55597      1.41273  5.76251e-05
      1.56315      1.41006  5.72367e-05
      1.57036      1.40739  5.68466e-05
      1.57761      1.40470  5.64546e-05
      1.58489      1.40199  5.60609e-05
      1.59221      1.39928  5.56653e-05
      1.59956      1.39705  5.53237e-05
      1.60694      1.39666  5.51855e-05
      1.61436      1.39626  5.50466e-05
      1.62181      1.39586  5.49072e-05
      1.62930      1.39545  5.47671e-05
      1.63682      1.39505  5.46263e-05
      1.64437      1.39464  5.44849e-05
      1.65196      1.39423  5.43428e-05
      1.65959      1.39382  5.42001e-05
      1.66725      1.39341  5.40567e-05
      1.67494      1.39299  5.39127e-05
      1.68267      1.39257  5.37680e-05
      1.69044      1.39215  5.36226e-05
      1.69824      1.39147  5.39228e-05
      1.70608      1.39062  5.44851e-05
      1.71396      1.38977  5.50501e-05
      1.72187      1.38892  5.56176e-05
      1.72982      1.38806  5.61877e-05
      1.73780      1.38720  5.67605e-05
      1.74582      1.38633  5.73359e-05
      1.75388      1.38546  5.79140e-05
      1.76198      1.38459  5.84947e-05
      1.77011      1.38371  5.90782e-05
      1.77828      1.38283  5.96643e-05
      1.78649      1.38194  6.02531e-05
      1.79473      1.38081  6.10853e-05
      1.80302      1.37958  6.20067e-05
      1.81134      1.37834  6.29324e-05
      1.81970      1.37710  6.38624e-05
      1.82810      1.37586  6.47967e-05
      1.83654      1.37461  6.57352e-05
      1.84502      1.37335  6.66782e-05
      1.85353      1.37209  6.76254e-05
      1.86209      1.34398  8.61731e-05
      1.87068      1.36184  9.29678e-05
      1.87932      1.36189  0.000102086
      1.88799      1.34130  0.000113893
      1.89671      1.24268  0.000207280
      1.90546      1.23125  0.000211563
      1.91426      1.21977  0.000215866
      1.92309      1.20824  0.000220189
      1.93197      1.19665  0.000224532
      1.94089      1.18501  0.000221223
      1.94984      1.17332  0.000211625
      1.95884      1.16157  0.000201983
      1.96789      1.14976  0.000192296
      1.97697      1.13790  0.000182565
      1.98609      1.11873  0.000171249
      1.99526      1.09697  0.000159351
      2.00447      1.07511  0.000147398
      2.01372      1.05439  0.000139975
      2.02302      1.03370  0.000132972
      2.03236      1.01292  0.000125936
      2.04174     0.990724  0.000119119
      2.05116     0.962762  0.000113351
      2.06063     0.934672  0.000107557
      2.07014     0.910420  0.000103554
      2.07970     0.891140  0.000101861
      2.08930     0.871771  0.000100161
      2.09894     0.852312  9.84521e-05
      2.10863     0.832764  9.67357e-05
      2.11836     0.824431  9.75417e-05
      2.12814     0.816889  9.85369e-05
      2.13796     0.809311  9.95368e-05
      2.14783     0.801699  0.000100541
      2.15774     0.794051  0.000101550
      2.16770     0.786368  0.000102564
      2.17771     0.778649  0.000103582
      2.18776     0.770895  0.000104606
      2.19786     0.721669  0.000127351
      2.20800     0.739732  0.000144121
      2.21820     0.752319  0.000151524
      2.22844     0.758947  0.000148742
      2.23872     0.765606  0.000145947
      2.24905     0.772296  0.000143139
      2.25944     0.779016  0.000140318
      2.26986     0.785768  0.000137485
      2.28034     0.792551  0.000134638
      2.29087     0.799365  0.000131778
      2.30144     0.806210  0.000128904
      2.31206     0.823125  0.000131447
      2.32274     0.861129  0.000145364
      2.33346     0.888907  0.000160098
      2.34423     0.912343  0.000175223
      2.35505     0.917186  0.000193296
      2.36592     0.875250  0.000218651
      2.37684     0.848828  0.000236567
      2.38781     0.829299  0.000251190
      2.39883     0.809680  0.000265882
      2.40991     0.792089  0.000279374
      2.42103     0.776246  0.000291837
      2.43220     0.760329  0.000304357
      2.44343     0.744339  0.000316935
      2.45471     0.753552  0.000338776
      2.46604     0.775964  0.000365509
      2.47742     0.796958  0.000387922
      2.48886     0.815379  0.000402638
      2.50035     0.833884  0.000417422
      2.51189     0.852475  0.000432274
      2.52348     0.871152  0.000447194
      2.53513     0.891879  0.000463670
      2.54683     0.930065  0.000493359
      2.55859     0.968428  0.000523186
      2.57040      1.00580  0.000551505
      2.58226      1.03679  0.000570682
      2.59418      1.06791  0.000589948
      2.60615      1.09918  0.000609302
      2.61818      1.13281  0.000641385
      2.63027      1.16866  0.000685384
      2.64241      1.20468  0.000729586
      2.65461      1.24086  0.000767592
      2.66686      1.27722  0.000802395
      2.67917      1.31375  0.000837358
      2.69153      1.60187   0.00120199
      2.70396      1.93013   0.00207997
      2.71644      1.98847   0.00245726
      2.72898      2.08038   0.00313867
      2.74157      2.10779   0.00349526
      2.75423      2.16402   0.00415546
      2.76694      2.28320   0.00573805
      2.77971      2.46445    0.0130254
      2.79254      2.48983    0.0154267
      2.80543      2.41751    0.0183689
      2.81838      2.33299    0.0226270
      2.83139      2.25220    0.0250837
      2.84446      2.18627    0.0171053
      2.85759      1.51100    0.0140290
      2.87078      1.51100    0.0124690
      2.88403      1.51126    0.0130312
      2.89734      1.51200    0.0129723
      2.91072      1.51156    0.0127442
      2.92415      1.50896    0.0123960
      2.93765      1.50641    0.0125547
      2.95121      1.50616    0.0132378
      2.96483      1.50558    0.0122593
      2.97852      1.50326    0.0108165
      2.99226      1.50561   0.00978545
      3.00608      1.50666   0.00881271
      3.01995      1.50513   0.00803056
      3.03389      1.50439   0.00696603
      3.04789      1.50771   0.00546552
      3.06196      1.50859   0.00527644
      3.07610      1.50526   0.00491662
      3.09030      1.50300   0.00479304
      3.10456      1.50389   0.00497393
      3.11889      1.50400   0.00414042
      3.13329      1.50231   0.00432773
      3.14775      1.50000   0.00479936
      3.16228      1.50077   0.00472737
      3.17687      1.50222   0.00479103
      3.19154      1.50367   0.00470632
      3.20627      1.50600   0.00483327
      3.22107      1.50600   0.00503087
      3.23594      1.50309   0.00495264
      3.25087      1.49861   0.00503785
      3.26588      1.49720   0.00522426
      3.28095      1.49579   0.00485354
      3.29610      1.49504   0.00448465
      3.31131      1.49513   0.00447237
      3.32660      1.49521   0.00446003
      3.34195      1.49530   0.00444764
      3.35738      1.49539   0.00443519
      3.37287      1.49548   0.00442269
      3.38844      1.49557   0.00441012
      3.40408      1.49566   0.00439749
      3.41979      1.49575   0.00438481
      3.43558      1.49584   0.00437207
      3.45144      1.49593   0.00435927
      3.46737      1.49603   0.00434641
      3.48337      1.49612   0.00433349
      3.49945      1.49621   0.00432051
      3.51560      1.49630   0.00430748
      3.53183      1.49640   0.00429438
      3.54813      1.49649   0.00428122
      3.56451      1.49659   0.00426800
      3.58096      1.49668   0.00425472
      3.59749      1.49678   0.00424138
      3.61410      1.49687   0.00422797
      3.63078      1.49697   0.00421451
      3.64754      1.49784   0.00457212
      3.66438      1.49690   0.00420890
      3.68129      1.49636   0.00362146
      3.69828      1.49821   0.00331572
      3.71535      1.49985   0.00346609
      3.73250      1.49992   0.00353268
      3.74973      1.49931   0.00310153
      3.76704      1.50054   0.00284693
      3.78443      1.50024   0.00312797
      3.80189      1.49611   0.00340456
      3.81944      1.49182   0.00378323
      3.83707      1.49100   0.00431343
      3.85478      1.49042   0.00464132
      3.87258      1.49000   0.00465359
      3.89045      1.49096   0.00460159
      3.90841      1.49214   0.00469987
      3.92645      1.49332   0.00474735
      3.94457      1.49449   0.00467140
      3.96278      1.49500   0.00458745
      3.98107      1.49662   0.00454568
      3.99945      1.49990   0.00461724
      4.01791      1.50011   0.00449871
      4.03645      1.50151   0.00402040
      4.05509      1.50379   0.00375442
      4.07380      1.50342   0.00369472
      4.09261      1.50069   0.00371625
      4.11150      1.50000   0.00369884
      4.13048      1.50000   0.00370794
      4.14954      1.49898   0.00398995
      4.16869      1.49715   0.00398392
      4.18794      1.49530   0.00397786
      4.20727      1.49344   0.00397178
      4.22669      1.49158   0.00396566
      4.24620      1.48970   0.00395952
      4.26580      1.48782   0.00395335
      4.28549      1.48593   0.00394715
      4.30527      1.48403   0.00394092
      4.32514      1.48212   0.00393467
      4.34510      1.48021   0.00392839
      4.36516      1.47828   0.00392207
      4.38531      1.47635   0.00391573
      4.40555      1.47440   0.00390936
      4.42588      1.47245   0.00390296
      4.44631      1.47049   0.00389652
      4.46684      1.46852   0.00389006
      4.48745      1.46654   0.00388357
      4.50817      1.46455   0.00387705
      4.52898      1.46255   0.00387050
      4.54988      1.46055   0.00386392
      4.57088      1.45853   0.00385731
      4.59198      1.45650   0.00385067
      4.61318      1.45447   0.00384399
      4.63447      1.45242   0.00383729
      4.65586      1.45037   0.00383056
      4.67735      1.44831   0.00382379
      4.69894      1.44623   0.00381699
      4.72063      1.44415   0.00381017
      4.74242      1.44206   0.00380331
      4.76431      1.43996   0.00379642
      4.78630      1.43793   0.00379490
      4.80839      1.43697   0.00386180
      4.83059      1.43601   0.00391915
      4.85288      1.43506   0.00398555
      4.87528      1.43412   0.00406065
      4.89779      1.43317   0.00412779
      4.92040      1.43224   0.00419345
      4.94311      1.43061   0.00426577
      4.96592      1.42937   0.00434010
      4.98884      1.42790   0.00441411
      5.01187      1.42653   0.00449252
      5.03501      1.42561   0.00457505
      5.05825      1.42470   0.00465417
      5.08159      1.42358   0.00473104
      5.10505      1.42189   0.00482035
      5.12861      1.42097   0.00490153
      5.15229      1.41918   0.00499111
      5.17607      1.41820   0.00508024
      5.19996      1.41731   0.00516897
      5.22396      1.41585   0.00526304
      5.24807      1.41410   0.00535977
      5.27230      1.41267   0.00545611
      5.29663      1.41180   0.00555398
      5.32108      1.41086   0.00565815
      5.34564      1.40914   0.00576176
      5.37032      1.40742   0.00586486
      5.39511      1.40571   0.00597395
      5.42001      1.40450   0.00608463
      5.44503      1.40331   0.00619486
      5.47016      1.40143   0.00630837
      5.49541      1.39897   0.00643417
      5.52077      1.39813   0.00655113
      5.54626      1.39730   0.00667457
      5.57186      1.39595   0.00680405
      5.59758      1.39395   0.00693251
      5.62341      1.39166   0.00705910
      5.64937      1.39002   0.00719814
      5.67545      1.38920   0.00733628
      5.70164      1.38717   0.00747989
      5.72796      1.38517   0.00762495
      5.75440      1.38356   0.00777160
      5.78096      1.38196   0.00792365
      5.80764      1.38038   0.00808243
      5.83445      1.37819   0.00824660
      5.86138      1.37622   0.00841197
      5.88844      1.37448   0.00857848
      5.91562      1.37213   0.00875027
      5.94292      1.37054   0.00892822
      5.97035      1.36849   0.00911099
      5.99791      1.36645   0.00929578
      6.02560      1.36488   0.00948071
      6.05341      1.36259   0.00967875
      6.08135      1.36032   0.00988156
      6.10942      1.35805    0.0100951
      6.13762      1.35579    0.0103210
      6.16595      1.35355    0.0105454
      6.19441      1.35131    0.0107688
      6.22300      1.34909    0.0109913
      6.25173      1.34687    0.0112132
      6.28058      1.34467    0.0114334
      6.30957      1.34196    0.0117036
      6.33870      1.33929    0.0119713
      6.36796      1.33711    0.0121891
      6.39735      1.33426    0.0124736
      6.42688      1.33179    0.0127608
      6.45654      1.32953    0.0130470
      6.48634      1.32668    0.0133316
      6.51628      1.37231    0.0109074
      6.54636      1.36976    0.0113886
      6.57658      1.36718    0.0119055
      6.60693      1.36456    0.0124536
      6.63743      1.36192    0.0130404
      6.66807      1.35926    0.0136653
      6.69885      1.35658    0.0143338
      6.72977      1.35390    0.0150459
      6.76083      1.35122    0.0157995
      6.79204      1.34855    0.0166016
      6.82339      1.34592    0.0174471
      6.85488      1.34332    0.0183333
      6.88652      1.34079    0.0192593
      6.91831      1.33833    0.0202166
      6.95024      1.33596    0.0211967
      6.98232      1.33369    0.0221900
      7.01455      1.33152    0.0231805
      7.04693      1.32947    0.0241527
      7.07946      1.32751    0.0250895
      7.11213      1.32564    0.0259766
      7.14496      1.32382    0.0267966
      7.17794      1.32202    0.0275392
      7.21107      1.32020    0.0281990
      7.24436      1.31831    0.0287755
      7.27780      1.31631    0.0292745
      7.31139      1.31415    0.0297060
      7.34514      1.31180    0.0300878
      7.37904      1.30924    0.0304384
      7.41310      1.30645    0.0307762
      7.44732      1.30343    0.0311219
      7.48170      1.30017    0.0314922
      7.51623      1.29670    0.0319031
      7.55092      1.29303    0.0323677
      7.58578      1.28916    0.0328956
      7.62079      1.28513    0.0334945
      7.65597      1.28095    0.0341710
      7.69130      1.27664    0.0349249
      7.72681      1.27222    0.0357564
      7.76247      1.26771    0.0366650
      7.79830      1.26311    0.0376468
      7.83430      1.25845    0.0386953
      7.87046      1.25372    0.0398017
      7.90679      1.24893    0.0409596
      7.94328      1.24409    0.0421572
      7.97995      1.23916    0.0433863
      8.01678      1.23416    0.0446344
      8.05378      1.22904    0.0458932
      8.09096      1.22378    0.0471558
      8.12831      1.21834    0.0484150
      8.16582      1.21266    0.0496699
      8.20352      1.20671    0.0509237
      8.24138      1.20041    0.0521822
      8.27942      1.19370    0.0534612
      8.31764      1.18651    0.0547768
      8.35603      1.17878    0.0561561
      8.39460      1.17043    0.0576306
      8.43335      1.16139    0.0592377
      8.47227      1.15159    0.0610239
      8.51138      1.14093    0.0630436
      8.55067      1.12935    0.0653609
      8.59014      1.11674    0.0680540
      8.62979      1.10301    0.0712163
      8.66962      1.08805    0.0749647
      8.70964      1.07173    0.0794493
      8.74984      1.05392    0.0848595
      8.79023      1.03449    0.0914485
      8.83080      1.01331    0.0995492
      8.87156     0.990310     0.109614
      8.91251     0.965514     0.122249
      8.95365     0.939215     0.138257
      8.99498     0.912227     0.158643
      9.03650     0.886351     0.184502
      9.07821     0.865093     0.216564
      9.12011     0.854360     0.254093
      9.16220     0.862188     0.293182
      9.20450     0.895963     0.325885
      9.24698     0.956635     0.342753
      9.28966      1.03339     0.338925
      9.33254      1.10568     0.318150
      9.37562      1.15539     0.289972
      9.41890      1.17677     0.263310
      9.46237      1.17443     0.243037
      9.50605      1.15599     0.230570
      9.54993      1.12783     0.225678
      9.59401      1.09418     0.227711
      9.63829      1.05765     0.236144
      9.68278      1.01990     0.250739
      9.72747     0.982255     0.271515
      9.77237     0.946044     0.298643
      9.81748     0.912906     0.332245
      9.86279     0.884938     0.372103
      9.90832     0.864630     0.417366
      9.95405     0.854659     0.466254
      10.0000     0.857507     0.516129
      10.0462     0.875247     0.563745
      10.0925     0.909344     0.605466
      10.1391     0.961036     0.638138
      10.1859      1.03078     0.658840
      10.2329      1.11809     0.665643
      10.2802      1.22097     0.657872
      10.3276      1.33438     0.636425
      10.3753      1.45189     0.603461
      10.4232      1.56509     0.562180
      10.4713      1.66640     0.516059
      10.5196      1.75056     0.468335
      10.5682      1.81548     0.421525
      10.6170      1.86147     0.377560
      10.6660      1.89079     0.337490
      10.7152      1.90652     0.301744
      10.7647      1.91174     0.270248
      10.8143      1.90918     0.242857
      10.8643      1.90105     0.219017
      10.9144      1.88910     0.198439
      10.9648      1.87459     0.180608
      11.0154      1.85850     0.165172
      11.0662      1.84149     0.151780
      11.1173      1.82400     0.140112
      11.1686      1.80640     0.129935
      11.2202      1.78887     0.121015
      11.2720      1.77160     0.113191
      11.3240      1.75468     0.106307
      11.3763      1.73813     0.100224
      11.4288      1.72201    0.0948442
      11.4815      1.70633    0.0900783
      11.5345      1.69105    0.0858397
      11.5878      1.67618    0.0820654
      11.6413      1.66171    0.0787065
      11.6950      1.64764    0.0757174
      11.7490      1.63390    0.0730507
      11.8032      1.62050    0.0706769
      11.8577      1.60740    0.0685640
      11.9124      1.59458    0.0666893
      11.9674      1.58201    0.0650267
      12.0226      1.56969    0.0635629
      12.0781      1.55757    0.0622764
      12.1339      1.54562    0.0611552
      12.1899      1.53386    0.0601885
      12.2462      1.52223    0.0593638
      12.3027      1.51075    0.0586751
      12.3595      1.49936    0.0581116
      12.4165      1.48808    0.0576689
      12.4738      1.47687    0.0573403
      12.5314      1.46570    0.0571226
      12.5893      1.45457    0.0570109
      12.6474      1.44347    0.0570036
      12.7057      1.43239    0.0570986
      12.7644      1.42129    0.0572946
      12.8233      1.41017    0.0575903
      12.8825      1.39900    0.0579874
      12.9420      1.38778    0.0584853
      13.0017      1.37651    0.0590851
      13.0617      1.36514    0.0597905
      13.1220      1.35367    0.0606039
      13.1826      1.34208    0.0615302
      13.2434      1.33038    0.0625705
      13.3045      1.31853    0.0637329
      13.3660      1.30649    0.0650258
      13.4276      1.29430    0.0664493
      13.4896      1.28190    0.0680198
      13.5519      1.26927    0.0697448
      13.6144      1.25643    0.0716310
      13.6773      1.24332    0.0736985
      13.7404      1.22995    0.0759540
      13.8038      1.21629    0.0784193
      13.8676      1.20229    0.0811157
      13.9316      1.18799    0.0840567
      13.9959      1.17332    0.0872717
      14.0605      1.15828    0.0907872
      14.1254      1.14283    0.0946359
      14.1906      1.12697    0.0988537
      14.2561      1.11067     0.103482
      14.3219      1.09391     0.108569
      14.3880      1.07667     0.114168
      14.4544      1.05895     0.120342
      14.5211      1.04073     0.127160
      14.5881      1.02203     0.134704
      14.6555      1.00282     0.143077
      14.7231     0.983185     0.152357
      14.7911     0.963125     0.162685
      14.8594     0.942742     0.174172
      14.9279     0.922181     0.186932
      14.9968     0.901544     0.201135
      15.0661     0.881049     0.216918
      15.1356     0.861044     0.234344
      15.2055     0.841841     0.253534
      15.2757     0.823922     0.274469
      15.3462     0.807819     0.297055
      15.4170     0.794125     0.321072
      15.4882     0.783445     0.346186
      15.5597     0.776400     0.371832
      15.6315     0.773521     0.397342
      15.7036     0.775216     0.421944
      15.7761     0.781760     0.444857
      15.8489     0.793237     0.465252
      15.9221     0.809573     0.482446
      15.9956     0.830443     0.495847
      16.0694     0.855316     0.505090
      16.1436     0.883465     0.510043
      16.2181     0.913854     0.510806
      16.2930     0.945314     0.507731
      16.3682     0.976454     0.501385
      16.4437      1.00588     0.492497
      16.5196      1.03230     0.481878
      16.5959      1.05458     0.470381
      16.6725      1.07180     0.458864
      16.7494      1.08343     0.448116
      16.8267      1.08923     0.438851
      16.9044      1.08924     0.431747
      16.9824      1.08375     0.427443
      17.0608      1.07331     0.426550
      17.1396      1.05875     0.429684
      17.2187      1.04132     0.437422
      17.2982      1.02277     0.450225
      17.3780      1.00577     0.468151
      17.4582     0.994020     0.490445
      17.5388     0.992350     0.514810
      17.6198      1.00609     0.536867
      17.7011      1.03921     0.550463
      17.7828      1.09159     0.549761
      17.8649      1.15623     0.532410
      17.9473      1.21986     0.501597
      18.0302      1.26912     0.464278
      18.1134      1.29658     0.427629
      18.1970      1.30257     0.396154
      18.2810      1.29166     0.371644
      18.3654      1.26920     0.354123
      18.4502      1.23955     0.342848
      18.5353      1.20583     0.336910
      18.6209      1.16998     0.335468
      18.7068      1.13334     0.337859
      18.7932      1.09668     0.343565
      18.8799      1.06066     0.352166
      18.9671      1.02562     0.363342
      19.0546     0.991992     0.376754
      19.1426     0.959992     0.392124
      19.2309     0.929922     0.409086
      19.3197     0.901860     0.427330
      19.4089     0.875882     0.446478
      19.4984     0.851917     0.466181
      19.5884     0.829678     0.486223
      19.6789     0.808812     0.506461
      19.7697     0.788922     0.526845
      19.8609     0.769518     0.547545
      19.9526     0.750155     0.568864
      20.0447     0.730533     0.591154
      20.1372     0.710479     0.614834
      20.2302     0.689970     0.640332
      20.3236     0.669191     0.667953
      20.4174     0.648440     0.697910
      20.5116     0.628098     0.730279
      20.6063     0.608556     0.765030
      20.7014     0.590222     0.801935
      20.7970     0.573399     0.840755
      20.8930     0.558341     0.881116
      20.9894     0.545188     0.922678
      21.0863     0.533994     0.965155
      21.1836     0.524772      1.00822
      21.2814     0.517472      1.05166
      21.3796     0.512037      1.09523
      21.4783     0.508383      1.13883
      21.5774     0.506434      1.18227
      21.6770     0.506113      1.22550
      21.7771     0.507356      1.26845
      21.8776     0.510110      1.31100
      21.9786     0.514336      1.35313
      22.0800     0.520002      1.39475
      22.1820     0.527110      1.43589
      22.2844     0.535647      1.47640
      22.3872     0.545624      1.51621
      22.4905     0.557079      1.55529
      22.5944     0.570066      1.59358
      22.6986     0.584599      1.63086
      22.8034     0.600787      1.66711
      22.9087     0.618697      1.70214
      23.0144     0.638403      1.73575
      23.1206     0.660029      1.76777
      23.2274     0.683719      1.79800
      23.3346     0.709565      1.82610
      23.4423     0.737734      1.85182
      23.5505     0.768390      1.87483
      23.6592     0.801709      1.89474
      23.7684     0.837877      1.91118
      23.8781     0.877089      1.92371
      23.9883     0.919549      1.93190
      24.0991     0.965506      1.93529
      24.2103      1.01507      1.93346
      24.3220      1.06848      1.92600
      24.4343      1.12593      1.91258
      24.5471      1.18748      1.89296
      24.6604      1.25316      1.86705
      24.7742      1.32291      1.83493
      24.8886      1.39657      1.79683
      25.0035      1.47370      1.75326
      25.1189      1.55371      1.70491
      25.2348      1.63578      1.65266
      25.3513      1.71897      1.59744
      25.4683      1.80200      1.54035
      25.5859      1.88362      1.48237
      25.7040      1.96242      1.42453
      25.8226      2.03711      1.36767
      25.9418      2.10661      1.31248
      26.0615      2.16990      1.25961
      26.1818      2.22632      1.20951
      26.3027      2.27539      1.16257
      26.4241      2.31684      1.11916
      26.5461      2.35070      1.07953
      26.6686      2.37715      1.04397
      26.7917      2.39659      1.01268
      26.9153      2.40960     0.985950
      27.0396      2.41699     0.963987
      27.1644      2.41981     0.947085
      27.2898      2.41949     0.935435
      27.4157      2.41796     0.929132
      27.5423      2.41777     0.927984
      27.6694      2.42235     0.931297
      27.7971      2.43590     0.937534
      27.9254      2.46320     0.943987
      28.0543      2.50856     0.946699
      28.1838      2.57415     0.940970
      28.3139      2.65788     0.922684
      28.4446      2.75222     0.890047
      28.5759      2.84558     0.844625
      28.7078      2.92619     0.790814
      28.8403      2.98613     0.734042
      28.9734      3.02300     0.678951
      29.1072      3.03879     0.628471
      29.2415      3.03762     0.584016
      29.3765      3.02395     0.545719
      29.5121      3.00163     0.513188
      29.6483      2.97361     0.485746
      29.7852      2.94194     0.462659
      29.9226      2.90811     0.443301
      30.0608      2.87295     0.427072
      30.1995      2.83712     0.413553
      30.3389      2.80092     0.402359
      30.4790      2.76454     0.393214
      30.6196      2.72809     0.385921
      30.7610      2.69152     0.380312
      30.9030      2.65482     0.376299
      31.0456      2.61790     0.373830
      31.1889      2.58063     0.372897
      31.3329      2.54285     0.373540
      31.4775      2.50444     0.375851
      31.6228      2.46518     0.379975
      31.7687      2.42493     0.386129
      31.9154      2.38342     0.394623
      32.0627      2.34055     0.405864
      32.2107      2.29615     0.420418
      32.3594      2.25022     0.439031
      32.5087      2.20305     0.462662
      32.6588      2.15527     0.492583
      32.8095      2.10858     0.530219
      32.9610      2.06608     0.577087
      33.1131      2.03359     0.633936
      33.2660      2.02052     0.699548
      33.4195      2.04031     0.768115
      33.5738      2.10779     0.827596
      33.7287      2.23135     0.861068
      33.8844      2.40164     0.855057
      34.0408      2.58558     0.809532
      34.1979      2.74130     0.739310
      34.3558      2.84384     0.663721
      34.5144      2.89347     0.596319
      34.6737      2.90444     0.542353
      34.8337      2.89211     0.501760
      34.9945      2.86779     0.472362
      35.1560      2.83854     0.451688
      35.3183      2.80837     0.437562
      35.4813      2.77947     0.428293
      35.6451      2.75293     0.422584
      35.8096      2.72927     0.419470
      35.9749      2.70866     0.418211
      36.1410      2.69109     0.418244
      36.3078      2.67646     0.419127
      36.4754      2.66459     0.420509
      36.6438      2.65526     0.422113
      36.8129      2.64822     0.423717
      36.9828      2.64322     0.425152
      37.1535      2.63996     0.426287
      37.3250      2.63815     0.427030
      37.4973      2.63751     0.427327
      37.6704      2.63773     0.427153
      37.8443      2.63853     0.426511
      38.0189      2.63964     0.425429
      38.1944      2.64082     0.423955
      38.3707      2.64184     0.422154
      38.5478      2.64251     0.420105
      38.7258      2.64266     0.417893
      38.9045      2.64216     0.415613
      39.0841      2.64090     0.413361
      39.2645      2.63880     0.411236
      39.4457      2.63581     0.409342
      39.6278      2.63191     0.407780
      39.8107      2.62707     0.406659
      39.9945      2.62130     0.406090
      40.1791      2.61464     0.406195
      40.3645      2.60715     0.407106
      40.5509      2.59889     0.408975
      40.7380      2.59003     0.411969
      40.9261      2.58077     0.416286
      41.1150      2.57146     0.422139
      41.3047      2.56261     0.429752
      41.4954      2.55503     0.439341
      41.6869      2.54995     0.451012
      41.8794      2.54913     0.464669
      42.0727      2.55495     0.479749
      42.2669      2.57018     0.494985
      42.4620      2.59732     0.508193
      42.6580      2.63711     0.516472
      42.8549      2.68703     0.517124
      43.0527      2.74091     0.509010
      43.2514      2.79093     0.493349
      43.4510      2.83099     0.473127
      43.6516      2.85864     0.451617
      43.8531      2.87470     0.431269
      44.0555      2.88172     0.413364
      44.2588      2.88246     0.398286
      44.4631      2.87927     0.385899
      44.6684      2.87384     0.375855
      44.8745      2.86735     0.367761
      45.0817      2.86051     0.361229
      45.2898      2.85380     0.355945
      45.4988      2.84749     0.351644
      45.7088      2.84171     0.348110
      45.9198      2.83655     0.345175
      46.1318      2.83203     0.342706
      46.3447      2.82815     0.340597
      46.5586      2.82489     0.338761
      46.7735      2.82223     0.337129
      46.9894      2.82011     0.335647
      47.2063      2.81852     0.334270
      47.4242      2.81741     0.332961
      47.6431      2.81675     0.331690
      47.8630      2.81649     0.330434
      48.0839      2.81660     0.329171
      48.3059      2.81704     0.327885
      48.5289      2.81779     0.326564
      48.7528      2.81880     0.325198
      48.9779      2.82006     0.323775
      49.2040      2.82152     0.322293
      49.4311      2.82316     0.320746
      49.6592      2.82496     0.319130
      49.8885      2.82688     0.317442
      50.1187      2.82891     0.315683
      50.3501      2.83102     0.313851
      50.5825      2.83319     0.311949
      50.8159      2.83541     0.309977
      51.0505      2.83764     0.307936
      51.2861      2.83988     0.305832
      51.5229      2.84211     0.303664
      51.7607      2.84432     0.301438
      51.9996      2.84648     0.299156
      52.2396      2.84860     0.296824
      52.4807      2.85065     0.294444
      52.7230      2.85262     0.292021
      52.9663      2.85452     0.289559
      53.2108      2.85632     0.287063
      53.4564      2.85802     0.284537
      53.7032      2.85962     0.281984
      53.9511      2.86111     0.279410
      54.2001      2.86249     0.276820
      54.4503      2.86374     0.274215
      54.7016      2.86487     0.271602
      54.9541      2.86588     0.268982
      55.2077      2.86676     0.266363
      55.4626      2.86752     0.263742
      55.7186      2.86814     0.261129
      55.9758      2.86863     0.258524
      56.2341      2.86900     0.255930
      56.4937      2.86923     0.253352
      56.7545      2.86933     0.250789
      57.0164      2.86931     0.248249
      57.2796      2.86916     0.245730
      57.5440      2.86888     0.243237
      57.8096      2.86848     0.240770
      58.0764      2.86795     0.238332
      58.3445      2.86730     0.235924
      58.6138      2.86654     0.233552
      58.8844      2.86565     0.231212
      59.1562      2.86465     0.228909
      59.4292      2.86353     0.226645
      59.7035      2.86230     0.224418
      59.9791      2.86096     0.222233
      60.2560      2.85951     0.220089
      60.5341      2.85795     0.217989
      60.8135      2.85628     0.215932
      61.0942      2.85451     0.213921
      61.3762      2.85263     0.211955
      61.6595      2.85065     0.210037
      61.9441      2.84856     0.208167
      62.2300      2.84637     0.206348
      62.5173      2.84408     0.204579
      62.8058      2.84169     0.202862
      63.0957      2.83919     0.201198
      63.3870      2.83659     0.199587
      63.6796      2.83388     0.198034
      63.9735      2.83107     0.196537
      64.2688      2.82814     0.195098
      64.5654      2.82511     0.193722
      64.8634      2.82197     0.192408
      65.1628      2.81871     0.191158
      65.4636      2.81534     0.189975
      65.7658      2.81184     0.188863
      66.0693      2.80822     0.187825
      66.3743      2.80446     0.186862
      66.6807      2.80057     0.185981
      66.9885      2.79653     0.185186
      67.2977      2.79234     0.184481
      67.6083      2.78800     0.183873
      67.9204      2.78349     0.183369
      68.2339      2.77880     0.182976
      68.5488      2.77393     0.182704
      68.8652      2.76885     0.182562
      69.1831      2.76357     0.182564
      69.5024      2.75807     0.182722
      69.8232      2.75233     0.183054
      70.1455      2.74633     0.183579
      70.4693      2.74007     0.184318
      70.7946      2.73352     0.185297
      71.1214      2.72668     0.186549
      71.4496      2.71952     0.188107
      71.7794      2.71203     0.190016
      72.1107      2.70421     0.192326
      72.4436      2.69604     0.195098
      72.7780      2.68754     0.198400
      73.1139      2.67873     0.202318
      73.4514      2.66964     0.206950
      73.7904      2.66035     0.212411
      74.1310      2.65099     0.218835
      74.4732      2.64172     0.226373
      74.8169      2.63285     0.235186
      75.1623      2.62478     0.245449
      75.5092      2.61809     0.257309
      75.8578      2.61363     0.270878
      76.2079      2.61249     0.286144
      76.5597      2.61610     0.302919
      76.9130      2.62614     0.320693
      77.2681      2.64440     0.338562
      77.6247      2.67237     0.355114
      77.9830      2.71071     0.368571
      78.3430      2.75858     0.377058
      78.7046      2.81328     0.379106
      79.0679      2.87056     0.374159
      79.4328      2.92552     0.362788
      79.7995      2.97397     0.346486
      80.1678      3.01327     0.327199
      80.5378      3.04260     0.306770
      80.9096      3.06260     0.286634
      81.2831      3.07465     0.267728
      81.6582      3.08043     0.250547
      82.0352      3.08154     0.235244
      82.4138      3.07931     0.221801
      82.7942      3.07479     0.210073
      83.1764      3.06877     0.199876
      83.5603      3.06183     0.191017
      83.9460      3.05439     0.183310
      84.3335      3.04672     0.176589
      84.7227      3.03902     0.170710
      85.1138      3.03143     0.165544
      85.5067      3.02402     0.160988
      85.9014      3.01684     0.156950
      86.2979      3.00994     0.153361
      86.6962      3.00333     0.150151
      87.0964      2.99700     0.147272
      87.4984      2.99096     0.144678
      87.9023      2.98519     0.142330
      88.3080      2.97970     0.140199
      88.7156      2.97447     0.138255
      89.1251      2.96948     0.136478
      89.5365      2.96473     0.134845
      89.9498      2.96019     0.133343
      90.3649      2.95587     0.131955
      90.7821      2.95174     0.130670
      91.2011      2.94780     0.129477
      91.6220      2.94404     0.128363
      92.0450      2.94044     0.127324
      92.4698      2.93700     0.126353
      92.8966      2.93371     0.125440
      93.3254      2.93055     0.124584
      93.7562      2.92753     0.123775
      94.1890      2.92463     0.123014
      94.6237      2.92185     0.122293
      95.0605      2.91919     0.121609
      95.4993      2.91663     0.120960
      95.9401      2.91417     0.120343
      96.3829      2.91181     0.119755
      96.8278      2.90954     0.119195
      97.2747      2.90736     0.118661
      97.7237      2.90527     0.118148
      98.1748      2.90325     0.117659
      98.6279      2.90131     0.117190
      99.0832      2.89944     0.116737
      99.5405      2.89764     0.116303
      100.000      2.89591     0.115886
      100.462      2.89424     0.115482
      100.925      2.89264     0.115094
      101.391      2.89109     0.114718
      101.859      2.88960     0.114356
      102.329      2.88817     0.114003
      102.802      2.88679     0.113662
      103.276      2.88546     0.113332
      103.753      2.88418     0.113009
      104.232      2.88294     0.112697
      104.713      2.88176     0.112392
      105.196      2.88062     0.112096
      105.682      2.87952     0.111807
      106.170      2.87846     0.111523
      106.660      2.87744     0.111247
      107.152      2.87646     0.110976
      107.647      2.87552     0.110712
      108.143      2.87461     0.110453
      108.643      2.87374     0.110198
      109.144      2.87291     0.109949
      109.648      2.87210     0.109704
      110.154      2.87133     0.109462
      110.662      2.87060     0.109224
      111.173      2.86989     0.108988
      111.686      2.86921     0.108759
      112.202      2.86856     0.108528
      112.720      2.86794     0.108304
      113.240      2.86734     0.108081
      113.763      2.86677     0.107860
      114.288      2.86623     0.107641
      114.815      2.86571     0.107426
      115.345      2.86522     0.107211
      115.878      2.86475     0.106997
      116.413      2.86430     0.106785
      116.950      2.86388     0.106575
      117.490      2.86348     0.106367
      118.032      2.86310     0.106160
      118.577      2.86274     0.105954
      119.124      2.86240     0.105744
      119.674      2.86208     0.105539
      120.226      2.86178     0.105333
      120.781      2.86149     0.105129
      121.339      2.86123     0.104925
      121.899      2.86098     0.104720
      122.462      2.86075     0.104515
      123.027      2.86054     0.104312
      123.595      2.86034     0.104108
      124.165      2.86016     0.103904
      124.738      2.86000     0.103700
      125.314      2.85985     0.103495
      125.893      2.85971     0.103290
      126.474      2.85959     0.103084
      127.057      2.85949     0.102878
      127.644      2.85939     0.102672
      128.233      2.85931     0.102465
      128.825      2.85924     0.102257
      129.420      2.85919     0.102047
      130.017      2.85915     0.101837
      130.617      2.85911     0.101628
      131.220      2.85909     0.101417
      131.826      2.85909     0.101205
      132.434      2.85909     0.100993
      133.045      2.85910     0.100780
      133.660      2.85912     0.100565
      134.276      2.85916     0.100349
      134.896      2.85920     0.100132
      135.519      2.85925    0.0999153
      136.144      2.85931    0.0996955
      136.773      2.85938    0.0994752
      137.404      2.85946    0.0992545
      138.038      2.85954    0.0990309
      138.676      2.85964    0.0988091
      139.316      2.85974    0.0985845
      139.959      2.85985    0.0983593
      140.605      2.85996    0.0981312
      141.254      2.86009    0.0979025
      141.906      2.86022    0.0976733
      142.561      2.86036    0.0974436
      143.219      2.86050    0.0972134
      143.880      2.86065    0.0969801
      144.544      2.86080    0.0967463
      145.211      2.86096    0.0965094
      145.881      2.86113    0.0962744
      146.555      2.86130    0.0960364
      147.231      2.86148    0.0957977
      147.911      2.86166    0.0955560
      148.594      2.86185    0.0953162
      149.279      2.86204    0.0950733
      149.968      2.86224    0.0948297
      150.661      2.86244    0.0945855
      151.356      2.86264    0.0943382
      152.055      2.86285    0.0940927
      152.757      2.86306    0.0938440
      153.462      2.86327    0.0935922
      154.170      2.86349    0.0933422
      154.882      2.86371    0.0930916
      155.597      2.86394    0.0928377
      156.315      2.86417    0.0925831
      157.036      2.86440    0.0923278
      157.761      2.86463    0.0920744
      158.489      2.86487    0.0918151
      159.221      2.86511    0.0915576
      159.956      2.86535    0.0912995
      160.694      2.86559    0.0910379
      161.436      2.86583    0.0907783
      162.181      2.86608    0.0905153
      162.930      2.86633    0.0902515
      163.682      2.86658    0.0899896
      164.437      2.86683    0.0897243
      165.196      2.86708    0.0894581
      165.959      2.86734    0.0891912
      166.725      2.86760    0.0889262
      167.494      2.86785    0.0886577
      168.267      2.86811    0.0883883
      169.044      2.86837    0.0881182
      169.824      2.86863    0.0878499
      170.608      2.86889    0.0875781
      171.396      2.86915    0.0873054
      172.187      2.86941    0.0870347
      172.982      2.86968    0.0867603
      173.780      2.86994    0.0864878
      174.582      2.87020    0.0862117
      175.388      2.87047    0.0859375
      176.198      2.87073    0.0856624
      177.011      2.87100    0.0853864
      177.828      2.87126    0.0851095
      178.649      2.87152    0.0848346
      179.473      2.87179    0.0845559
      180.302      2.87205    0.0842791
      181.134      2.87232    0.0839986
      181.970      2.87258    0.0837199
      182.810      2.87284    0.0834404
      183.654      2.87311    0.0831599
      184.502      2.87337    0.0828842
      185.353      2.87363    0.0826047
      186.209      2.87389    0.0823214
      187.068      2.87416    0.0820400
      187.932      2.87442    0.0817605
      188.799      2.87468    0.0814801
      189.671      2.87494    0.0811987
      190.546      2.87520    0.0809163
      191.426      2.87545    0.0806330
      192.309      2.87571    0.0803545
      193.197      2.87597    0.0800692
      194.089      2.87622    0.0797858
      194.984      2.87648    0.0795044
      195.884      2.87673    0.0792250
      196.789      2.87698    0.0789386
      197.697      2.87724    0.0786572
      198.609      2.87749    0.0783748
      199.526      2.87774    0.0780914
      200.447      2.87798    0.0778100
      201.372      2.87823    0.0775276
      202.302      2.87848    0.0772473
      203.236      2.87872    0.0769628
      204.174      2.87897    0.0766804
      205.116      2.87921    0.0764000
      206.063      2.87945    0.0761186
      207.014      2.87969    0.0758362
      207.970      2.87993    0.0755527
      208.930      2.88017    0.0752714
      209.894      2.88041    0.0749921
      210.863      2.88064    0.0747086
      211.836      2.88088    0.0744273
      212.814      2.88111    0.0741480
      213.796      2.88134    0.0738678
      214.783      2.88157    0.0735864
      215.774      2.88180    0.0733073
      216.770      2.88203    0.0730270
      217.771      2.88225    0.0727457
      218.776      2.88248    0.0724666
      219.786      2.88270    0.0721897
      220.800      2.88292    0.0719117
      221.820      2.88314    0.0716327
      222.844      2.88336    0.0713559
      223.872      2.88358    0.0710781
      224.905      2.88379    0.0708025
      225.944      2.88401    0.0705258
      226.986      2.88422    0.0702514
      228.034      2.88443    0.0699726
      229.087      2.88464    0.0696995
      230.144      2.88485    0.0694253
      231.206      2.88506    0.0691500
      232.274      2.88526    0.0688771
      233.346      2.88547    0.0686031
      234.423      2.88567    0.0683315
      235.505      2.88587    0.0680588
      236.592      2.88607    0.0677885
      237.684      2.88627    0.0675171
      238.781      2.88646    0.0672447
      239.883      2.88666    0.0669747
      240.991      2.88685    0.0667072
      242.103      2.88704    0.0664350
      243.220      2.88724    0.0661689
      244.343      2.88743    0.0659017
      245.471      2.88761    0.0656334
      246.604      2.88780    0.0653677
      247.742      2.88798    0.0651009
      248.886      2.88817    0.0648367
      250.035      2.88835    0.0645677
      251.189      2.88853    0.0643050
      252.348      2.88871    0.0640412
      253.513      2.88889    0.0637801
      254.683      2.88906    0.0635179
      255.859      2.88924    0.0632583
      257.040      2.88941    0.0629977
      258.226      2.88958    0.0627361
      259.418      2.88976    0.0624733
      260.615      2.88992    0.0622171
      261.818      2.89009    0.0619598
      263.027      2.89026    0.0617014
      264.241      2.89042    0.0614459
      265.461      2.89059    0.0611893
      266.686      2.89075    0.0609355
      267.917      2.89091    0.0606806
      269.153      2.89107    0.0604247
      270.396      2.89123    0.0601716
      271.644      2.89139    0.0599215
      272.898      2.89154    0.0596703
      274.157      2.89170    0.0594180
      275.423      2.89185    0.0591687
      276.694      2.89200    0.0589184
      277.971      2.89215    0.0586710
      279.254      2.89230    0.0584185
      280.543      2.89245    0.0581731
      281.838      2.89259    0.0579267
      283.139      2.89274    0.0576834
      284.446      2.89288    0.0574390
      285.759      2.89302    0.0571936
      287.078      2.89317    0.0569513
      288.403      2.89331    0.0567079
      289.734      2.89345    0.0564678
      291.072      2.89358    0.0562266
      292.415      2.89372    0.0559844
      293.765      2.89385    0.0557454
      295.121      2.89399    0.0555054
      296.483      2.89412    0.0552686
      297.852      2.89425    0.0550308
      299.226      2.89438    0.0547920
      300.608      2.89451    0.0545566
      301.995      2.89464    0.0543244
      303.389      2.89477    0.0540913
      304.789      2.89489    0.0538572
      306.196      2.89502    0.0536265
      307.610      2.89514    0.0533948
      309.030      2.89526    0.0531621
      310.456      2.89538    0.0529329
      311.889      2.89550    0.0527072
      313.329      2.89562    0.0524760
      314.775      2.89574    0.0522484
      316.228      2.89586    0.0520197
      317.687      2.89597    0.0517947
      319.154      2.89609    0.0515686
      320.627      2.89620    0.0513462
      322.107      2.89632    0.0511228
      323.594      2.89643    0.0508985
      325.087      2.89654    0.0506779
      326.588      2.89665    0.0504563
      328.095      2.89676    0.0502384
      329.610      2.89686    0.0500196
      331.131      2.89697    0.0497999
      332.660      2.89708    0.0495792
      334.195      2.89718    0.0493623
      335.738      2.89728    0.0491493
      337.287      2.89739    0.0489306
      338.844      2.89749    0.0487157
      340.408      2.89759    0.0485048
      341.979      2.89769    0.0482880
      343.558      2.89779    0.0480802
      345.144      2.89789    0.0478665
      346.737      2.89798    0.0476568
      348.337      2.89808    0.0474463
      349.945      2.89818    0.0472398
      351.560      2.89827    0.0470324
      353.183      2.89836    0.0468241
      354.813      2.89846    0.0466149
      356.451      2.89855    0.0464098
      358.096      2.89864    0.0462039
      359.749      2.89873    0.0460022
      361.410      2.89882    0.0457996
      363.078      2.89891    0.0455962
      364.754      2.89899    0.0453918
      366.438      2.89908    0.0451917
      368.129      2.89917    0.0449908
      369.828      2.89925    0.0447890
      371.535      2.89934    0.0445969
      373.250      2.89942    0.0443987
      374.973      2.89950    0.0441996
      376.704      2.89958    0.0439995
      378.443      2.89967    0.0438095
      380.189      2.89975    0.0436131
      381.944      2.89983    0.0434214
      383.707      2.89990    0.0432232
      385.478      2.89998    0.0430353
      387.258      2.90006    0.0428409
      389.045      2.90014    0.0426513
      390.841      2.90021    0.0424608
      392.645      2.90029    0.0422695
      394.457      2.90036    0.0420829
      396.278      2.90044    0.0418956
      398.107      2.90051    0.0417073
      399.945      2.90058    0.0415240
      401.791      2.90065    0.0413341
      403.645      2.90072    0.0411549
      405.509      2.90079    0.0409691
      407.380      2.90086    0.0407883
      409.261      2.90093    0.0406067
      411.150      2.90100    0.0404243
      413.048      2.90107    0.0402410
      414.954      2.90114    0.0400629
      416.869      2.90120    0.0398780
      418.794      2.90127    0.0397042
      420.727      2.90133    0.0395236
      422.669      2.90140    0.0393483
      424.620      2.90146    0.0391722
      426.580      2.90153    0.0389953
      428.549      2.90159    0.0388176
      430.527      2.90165    0.0386452
      432.514      2.90171    0.0384721
      434.510      2.90177    0.0382982
      436.516      2.90183    0.0381297
      438.531      2.90189    0.0379542
      440.555      2.90195    0.0377843
      442.588      2.90201    0.0376198
      444.631      2.90207    0.0374483
      446.684      2.90213    0.0372824
      448.745      2.90219    0.0371158
      450.817      2.90224    0.0369484
      452.898      2.90230    0.0367803
      454.988      2.90235    0.0366113
      457.088      2.90241    0.0364482
      459.198      2.90246    0.0362843
      461.318      2.90252    0.0361262
      463.447      2.90257    0.0359542
      465.586      2.90262    0.0357947
      467.735      2.90267    0.0356345
      469.894      2.90273    0.0354736
      472.063      2.90278    0.0353119
      474.242      2.90283    0.0351562
      476.431      2.90288    0.0349999
      478.630      2.90293    0.0348361
      480.839      2.90298    0.0346783
      483.059      2.90303    0.0345267
      485.289      2.90308    0.0343675
      487.529      2.90312    0.0342145
      489.779      2.90317    0.0340609
      492.040      2.90322    0.0339066
      494.311      2.90327    0.0337515
      496.592      2.90331    0.0336028
      498.884      2.90336    0.0334464
      501.187      2.90340    0.0332963
      503.501      2.90345    0.0331456
      505.825      2.90349    0.0329942
      508.159      2.90354    0.0328421
      510.505      2.90358    0.0326966
      512.861      2.90362    0.0325505
      515.229      2.90367    0.0324036
      517.607      2.90371    0.0322561
      519.996      2.90375    0.0321080
      522.396      2.90379    0.0319591
      524.807      2.90383    0.0318171
      527.230      2.90388    0.0316744
      529.663      2.90392    0.0315310
      532.108      2.90396    0.0313870
      534.564      2.90400    0.0312424
      537.032      2.90404    0.0310970
      539.511      2.90407    0.0309587
      542.001      2.90411    0.0308198
      544.503      2.90415    0.0306802
      547.016      2.90419    0.0305400
      549.541      2.90423    0.0304070
      552.077      2.90426    0.0302656
      554.626      2.90430    0.0301234
      557.186      2.90434    0.0299886
      559.758      2.90437    0.0298531
      562.341      2.90441    0.0297251
      564.937      2.90444    0.0295884
      567.545      2.90448    0.0294511
      570.164      2.90451    0.0293213
      572.796      2.90455    0.0291827
      575.440      2.90458    0.0290517
      578.096      2.90462    0.0289201
      580.764      2.90465    0.0287879
      583.445      2.90468    0.0286634
      586.138      2.90472    0.0285300
      588.844      2.90475    0.0283960
      591.562      2.90478    0.0282698
      594.292      2.90481    0.0281345
      597.035      2.90484    0.0280071
      599.791      2.90488    0.0278877
      602.560      2.90491    0.0277591
      605.341      2.90494    0.0276300
      608.135      2.90497    0.0275089
      610.942      2.90500    0.0273786
      613.762      2.90503    0.0272564
      616.595      2.90506    0.0271337
      619.441      2.90509    0.0270016
      622.300      2.90512    0.0268865
      625.173      2.90514    0.0267621
      628.058      2.90517    0.0266371
      630.957      2.90520    0.0265205
      633.870      2.90523    0.0263943
      636.796      2.90526    0.0262766
      639.735      2.90528    0.0261584
      642.688      2.90531    0.0260396
      645.654      2.90534    0.0259203
      648.634      2.90536    0.0258005
      651.628      2.90539    0.0256893
      654.636      2.90542    0.0255684
      657.658      2.90544    0.0254563
      660.693      2.90547    0.0253342
      663.743      2.90549    0.0252210
      666.807      2.90552    0.0250978
      669.885      2.90554    0.0249836
      672.977      2.90557    0.0248784
      676.083      2.90559    0.0247631
      679.204      2.90562    0.0246570
      682.339      2.90564    0.0245407
      685.488      2.90567    0.0244238
      688.652      2.90569    0.0243162
      691.831      2.90571    0.0241983
      695.024      2.90574    0.0240995
      698.232      2.90576    0.0239805
      701.455      2.90578    0.0238709
      704.693      2.90580    0.0237608
      707.946      2.90583    0.0236502
      711.214      2.90585    0.0235491
      714.496      2.90587    0.0234477
      717.794      2.90589    0.0233356
      721.107      2.90591    0.0232229
      724.436      2.90593    0.0231200
      727.780      2.90596    0.0230166
      731.139      2.90598    0.0229128
      734.514      2.90600    0.0228085
      737.904      2.90602    0.0227038
      741.310      2.90604    0.0225985
      744.732      2.90606    0.0224928
      748.169      2.90608    0.0223972
      751.623      2.90610    0.0222905
      755.092      2.90612    0.0221940
      758.578      2.90614    0.0220863
      762.079      2.90616    0.0219889
      765.597      2.90617    0.0218802
      769.130      2.90619    0.0217819
      772.681      2.90621    0.0216832
      776.247      2.90623    0.0215840
      779.830      2.90625    0.0214844
      783.430      2.90627    0.0213843
      787.046      2.90629    0.0212949
      790.679      2.90630    0.0211939
      794.328      2.90632    0.0210924
      797.995      2.90634    0.0210018
      801.678      2.90636    0.0209108
      805.378      2.90637    0.0208079
      809.096      2.90639    0.0207160
      812.831      2.90641    0.0206237
      816.582      2.90642    0.0205194
      820.352      2.90644    0.0204379
      824.138      2.90646    0.0203444
      827.942      2.90647    0.0202387
      831.764      2.90649    0.0201560
      835.603      2.90650    0.0200612
      839.460      2.90652    0.0199659
      843.335      2.90653    0.0198821
      847.227      2.90655    0.0197859
      851.138      2.90657    0.0197014
      855.067      2.90658    0.0196165
      859.014      2.90660    0.0195190
      862.979      2.90661    0.0194333
      866.962      2.90663    0.0193350
      870.964      2.90664    0.0192484
      874.984      2.90665    0.0191615
      879.023      2.90667    0.0190742
      883.080      2.90668    0.0189865
      887.156      2.90670    0.0188984
      891.251      2.90671    0.0188099
      895.365      2.90672    0.0187210
      899.498      2.90674    0.0186444
      903.649      2.90675    0.0185547
      907.821      2.90677    0.0184645
      912.011      2.90678    0.0183869
      916.221      2.90679    0.0183089
      920.450      2.90680    0.0182175
      924.698      2.90682    0.0181388
      928.966      2.90683    0.0180598
      933.254      2.90684    0.0179672
      937.562      2.90686    0.0178874
      941.890      2.90687    0.0178072
      946.237      2.90688    0.0177267
      950.605      2.90689    0.0176458
      954.993      2.90691    0.0175646
      959.401      2.90692    0.0174829
      963.829      2.90693    0.0174009
      968.278      2.90694    0.0173185
      972.747      2.90695    0.0172357
      977.237      2.90696    0.0171664
      981.748      2.90698    0.0170829
      986.279      2.90699    0.0169989
      990.832      2.90700    0.0169286
      995.405      2.90701    0.0168439
      1000.00      2.90702    0.0167730
