#FORMAT = WAVN n dn k dk
#DESCRIPTION = Refractive indices of ice at 163 K from 482 to 6962 cm<sup>-1</sup>.
#SUBSTANCE= Water Ice
#SAMPLEFORM= Thin Film
#TEMPERATURE= 163 K
#CONCENTRATION=   
#DOI=10.1029/94jd02388
#REFERENCE= O. B. Toon, M. A. Tolbert, B. G. Koehler, A. M. Middlebrook, and
## J. Jordan, The infrared optical constants of H2O-ice, amorphous acid
## solutions, and nitric acid hydrates, J. Geophys. Res., 99, 25631 - 25654,
## 1994.
#CONTACT= 
#COMMENT= Derived from 11 spectroscopic measurements of thin crystaline films.
 482 1.406 0.141 6.98E-003 7.0E-004
 490 1.418 0.142 8.24E-003 8.2E-004
 505 1.434 0.143 8.62E-003 8.6E-004
 521 1.451 0.145 8.28E-003 8.3E-004
 528 1.461 0.146 1.08E-002 1.1E-003
 540 1.471 0.147 2.07E-002 2.1E-003
 548 1.475 0.148 2.63E-002 2.6E-003
 559 1.481 0.148 3.10E-002 3.1E-003
 598 1.505 0.150 4.25E-002 4.3E-003
 636 1.536 0.154 6.38E-002 6.4E-003
 675 1.567 0.157 1.02E-001 1.0E-002
 714 1.592 0.159 1.55E-001 1.5E-002
 752 1.612 0.161 2.45E-001 2.5E-002
 791 1.568 0.157 3.69E-001 3.7E-002
 810 1.503 0.150 4.33E-001 4.3E-002
 829 1.413 0.141 4.65E-001 4.7E-002
 841 1.363 0.136 4.62E-001 4.6E-002
 868 1.257 0.126 4.33E-001 4.3E-002
 906 1.131 0.113 3.52E-001 3.5E-002
 930 1.076 0.108 2.58E-001 2.6E-002
 945 1.067 0.107 1.84E-001 1.8E-002
 984 1.139 0.114 6.11E-002 6.1E-003
1022 1.208 0.121 2.73E-002 2.7E-003
1045 1.239 0.124 1.95E-002 2.0E-003
1057 1.254 0.125 1.83E-002 1.8E-003
1099 1.285 0.128 3.22E-002 3.2E-003
1115 1.290 0.129 3.43E-002 3.4E-003
1138 1.296 0.130 3.49E-002 3.5E-003
1176 1.307 0.131 3.53E-002 3.5E-003
1215 1.316 0.132 3.64E-002 3.6E-003
1254 1.323 0.132 3.75E-002 3.8E-003
1292 1.330 0.133 3.88E-002 3.9E-003
1331 1.337 0.134 4.17E-002 4.2E-003
1369 1.342 0.134 4.71E-002 4.7E-003
1408 1.344 0.134 5.36E-002 5.4E-003
1446 1.343 0.134 5.98E-002 6.0E-003
1485 1.340 0.134 6.46E-002 6.5E-003
1523 1.335 0.134 6.78E-002 6.8E-003
1562 1.329 0.133 6.89E-002 6.9E-003
1601 1.323 0.132 6.90E-002 6.9E-003
1639 1.314 0.131 6.65E-002 6.6E-003
1678 1.305 0.130 5.74E-002 5.7E-003
1716 1.303 0.130 4.47E-002 4.5E-003
1755 1.306 0.131 3.40E-002 3.4E-003
1793 1.311 0.131 2.69E-002 2.7E-003
1832 1.317 0.132 2.16E-002 2.2E-003
1871 1.322 0.132 1.73E-002 1.7E-003
1909 1.328 0.133 1.38E-002 1.4E-003
1948 1.335 0.134 1.17E-002 1.2E-003
1986 1.341 0.134 1.12E-002 1.1E-003
2025 1.348 0.135 1.20E-002 1.2E-003
2063 1.354 0.135 1.40E-002 1.4E-003
2102 1.358 0.136 1.72E-002 1.7E-003
2141 1.362 0.136 2.20E-002 2.2E-003
2179 1.363 0.136 2.78E-002 2.8E-003
2218 1.361 0.136 3.24E-002 3.2E-003
2241 1.358 0.136 3.33E-002 3.3E-003
2256 1.356 0.136 3.27E-002 3.3E-003
2295 1.354 0.135 2.88E-002 2.9E-003
2333 1.355 0.135 2.40E-002 2.4E-003
2372 1.358 0.136 2.02E-002 2.0E-003
2411 1.362 0.136 1.77E-002 1.8E-003
2449 1.366 0.137 1.56E-002 1.6E-003
2488 1.371 0.137 1.37E-002 1.4E-003
2526 1.376 0.138 1.21E-002 1.2E-003
2565 1.382 0.138 1.04E-002 1.0E-003
2603 1.388 0.139 8.65E-003 8.7E-004
2642 1.396 0.140 6.85E-003 6.8E-004
2681 1.406 0.141 5.56E-003 5.6E-004
2719 1.417 0.142 5.19E-003 5.2E-004
2758 1.429 0.143 5.52E-003 5.5E-004
2796 1.444 0.144 6.41E-003 6.4E-004
2835 1.461 0.146 8.34E-003 8.3E-004
2873 1.482 0.148 1.23E-002 1.2E-003
2912 1.508 0.151 1.92E-002 1.9E-003
2951 1.539 0.154 3.04E-002 3.0E-003
2989 1.578 0.158 4.76E-002 4.8E-003
3028 1.633 0.163 7.43E-002 7.4E-003
3066 1.712 0.171 1.31E-001 1.3E-002
3105 1.801 0.180 2.91E-001 2.9E-002
3120 1.809 0.181 4.06E-001 4.1E-002
3143 1.715 0.171 5.37E-001 5.4E-002
3182 1.579 0.158 6.27E-001 6.3E-002
3205 1.505 0.150 7.25E-001 7.3E-002
3228 1.318 0.132 8.50E-001 8.5E-002
3259 1.035 0.103 6.75E-001 6.8E-002
3267 1.010 0.101 6.22E-001 6.2E-002
3298 0.981 0.098 4.69E-001 4.7E-002
3336 0.980 0.098 3.73E-001 3.7E-002
3375 0.955 0.095 3.04E-001 3.0E-002
3413 0.924 0.092 2.05E-001 2.1E-002
3452 0.964 0.096 9.80E-002 9.8E-003
3491 1.023 0.102 5.04E-002 5.0E-003
3529 1.066 0.107 2.80E-002 2.8E-003
3568 1.100 0.110 1.51E-002 1.5E-003
3606 1.127 0.113 7.49E-003 7.5E-004
3645 1.148 0.115 3.64E-003 3.6E-004
3683 1.166 0.117 1.68E-003 1.7E-004
3722 1.180 0.118 7.99E-004 8.0E-005
3761 1.191 0.119 4.04E-004 4.0E-005
3799 1.201 0.120 2.21E-004 2.2E-005
3815 1.204 0.120 2.17E-004 2.2E-005
3838 1.209 0.121 2.58E-004 2.6E-005
3876 1.216 0.122 3.19E-004 3.2E-005
3915 1.222 0.122 3.16E-004 3.2E-005
3953 1.227 0.123 3.16E-004 3.2E-005
3992 1.232 0.123 2.92E-004 2.9E-005
4030 1.236 0.124 3.65E-004 3.7E-005
4061 1.239 0.124 4.03E-004 4.0E-005
4069 1.240 0.124 3.96E-004 4.0E-005
4108 1.243 0.124 3.24E-004 3.2E-005
4146 1.246 0.125 2.16E-004 2.2E-005
4185 1.249 0.125 1.81E-004 1.8E-005
4223 1.252 0.125 2.28E-004 2.3E-005
4250 1.254 0.125 2.57E-004 2.6E-005
4281 1.256 0.126 2.00E-004 2.0E-005
4300 1.257 0.126 1.39E-004 1.4E-005
4312 1.257 0.126 1.00E-004 1.0E-005
4493 1.266 0.127 1.00E-004 1.0E-005
4648 1.272 0.127 1.00E-004 1.0E-005
4686 1.274 0.127 2.48E-004 2.5E-005
4725 1.275 0.127 5.23E-004 5.2E-005
4763 1.276 0.128 8.26E-004 8.3E-005
4802 1.277 0.128 1.09E-003 1.1E-004
4840 1.278 0.128 1.26E-003 1.3E-004
4879 1.278 0.128 1.37E-003 1.4E-004
4918 1.279 0.128 1.46E-003 1.5E-004
4956 1.280 0.128 1.51E-003 1.5E-004
4995 1.280 0.128 1.49E-003 1.5E-004
5033 1.281 0.128 1.38E-003 1.4E-004
5072 1.281 0.128 1.15E-003 1.2E-004
5110 1.282 0.128 8.73E-004 8.7E-005
5149 1.283 0.128 6.26E-004 6.3E-005
5188 1.283 0.128 4.38E-004 4.4E-005
5226 1.284 0.128 2.81E-004 2.8E-005
5265 1.285 0.128 1.69E-004 1.7E-005
5303 1.286 0.129 1.00E-004 1.0E-005
5496 1.289 0.129 1.00E-004 1.0E-005
5650 1.290 0.129 1.00E-004 1.0E-005
5689 1.291 0.129 1.05E-004 1.0E-005
5728 1.291 0.129 1.30E-004 1.3E-005
5766 1.292 0.129 1.45E-004 1.4E-005
5805 1.292 0.129 1.46E-004 1.5E-005
5843 1.293 0.129 1.27E-004 1.3E-005
5882 1.293 0.129 1.35E-004 1.3E-005
5920 1.293 0.129 1.61E-004 1.6E-005
5959 1.294 0.129 1.87E-004 1.9E-005
5998 1.294 0.129 2.23E-004 2.2E-005
6036 1.294 0.129 2.75E-004 2.8E-005
6075 1.295 0.130 3.13E-004 3.1E-005
6113 1.295 0.130 3.40E-004 3.4E-005
6152 1.295 0.130 3.47E-004 3.5E-005
6190 1.296 0.130 3.53E-004 3.5E-005
6229 1.296 0.130 3.88E-004 3.9E-005
6268 1.296 0.130 4.16E-004 4.2E-005
6306 1.296 0.130 4.26E-004 4.3E-005
6345 1.297 0.130 4.53E-004 4.5E-005
6383 1.297 0.130 4.94E-004 4.9E-005
6422 1.297 0.130 5.54E-004 5.5E-005
6460 1.297 0.130 5.78E-004 5.8E-005
6499 1.297 0.130 6.14E-004 6.1E-005
6538 1.298 0.130 6.40E-004 6.4E-005
6576 1.298 0.130 6.27E-004 6.3E-005
6615 1.298 0.130 6.46E-004 6.5E-005
6653 1.298 0.130 6.88E-004 6.9E-005
6692 1.298 0.130 6.96E-004 7.0E-005
6730 1.298 0.130 6.40E-004 6.4E-005
6769 1.298 0.130 5.42E-004 5.4E-005
6807 1.299 0.130 3.82E-004 3.8E-005
6846 1.299 0.130 2.64E-004 2.6E-005
6885 1.299 0.130 2.04E-004 2.0E-005
6923 1.299 0.130 1.71E-004 1.7E-005
6962 1.300 0.130 2.09E-004 2.1E-005