#SUBSTANCE=Manganese (Mn)
#DESCRIPTION=Refractive index of manganese (Mn)
#REFERENCE=M. Querry Optical Constants of Minerals and Other Materials from the Millimeter to the Ultraviolet
##Report CRDEC-CR-88009, US Army, Aberdeen, 1987
#FORMAT=WAVN N K DN DK
180	21.069	18.39	7.021	1.255
200	21.611	17.981	7.018	1.504
220	21.347	17.619	6.793	1.509
240	20.879	17.215	6.492	1.449
260	20.304	16.823	6.168	1.347
280	19.77	16.406	5.857	1.269
300	19.208	16.018	5.555	1.177
320	18.674	15.646	5.275	1.092
340	18.153	15.293	5.011	1.01
360	17.651	14.892	4.744	0.95
380	17.206	14.483	4.498	0.911
400	16.804	14.056	4.264	0.891
420	16.462	13.676	4.066	0.877
440	16.197	13.256	3.879	0.895
460	15.949	12.998	3.746	0.88
480	15.686	12.712	3.604	0.867
500	15.455	12.43	3.473	0.863
520	15.246	12.156	3.352	0.862
540	15.064	11.925	3.25	0.859
560	14.888	11.69	3.149	0.858
580	14.719	11.478	3.058	0.855
600	14.574	11.266	2.973	0.857
620	14.434	11.085	2.898	0.855
640	14.307	10.901	2.825	0.856
660	14.2	10.736	2.763	0.859
680	14.104	10.597	2.709	0.86
700	14.023	10.47	2.662	0.862
720	13.934	10.367	2.619	0.857
740	13.839	10.268	2.577	0.851
760	13.746	10.207	2.544	0.838
780	13.637	10.134	2.506	0.823
800	13.52	10.065	2.467	0.806
820	13.404	9.983	2.426	0.792
840	13.295	9.914	2.39	0.777
860	13.197	9.843	2.355	0.765
880	13.103	9.772	2.322	0.754
900	13.018	9.717	2.294	0.743
920	12.915	9.667	2.264	0.727
940	12.814	9.618	2.234	0.711
960	12.722	9.571	2.207	0.697
980	12.615	9.521	2.177	0.68
1000	12.524	9.475	2.151	0.667
1020	12.421	9.43	2.123	0.651
1040	12.322	9.383	2.095	0.636
1060	12.231	9.351	2.072	0.62
1080	12.13	9.306	2.045	0.605
1100	12.031	9.265	2.019	0.589
1120	11.941	9.219	1.994	0.577
1140	11.851	9.188	1.972	0.562
1160	11.76	9.143	1.947	0.55
1180	11.666	9.113	1.925	0.534
1200	11.564	9.075	1.9	0.518
1220	11.467	9.02	1.872	0.506
1240	11.382	8.979	1.85	0.495
1260	11.297	8.925	1.825	0.485
1280	11.222	8.88	1.803	0.477
1300	11.141	8.836	1.781	0.467
1320	11.059	8.797	1.76	0.456
1340	10.99	8.764	1.743	0.447
1360	10.907	8.726	1.722	0.436
1380	10.834	8.683	1.702	0.428
1400	10.762	8.643	1.683	0.419
1420	10.683	8.614	1.664	0.408
1440	10.61	8.563	1.643	0.401
1460	10.551	8.522	1.626	0.396
1480	10.485	8.503	1.612	0.386
1500	10.418	8.461	1.594	0.379
1520	10.352	8.434	1.578	0.37
1540	10.279	8.397	1.56	0.362
1560	10.221	8.366	1.546	0.355
1580	10.154	8.329	1.529	0.348
1600	10.094	8.299	1.514	0.341
1620	10.03	8.272	1.5	0.333
1640	9.964	8.244	1.484	0.325
1660	9.899	8.207	1.468	0.318
1680	9.836	8.179	1.453	0.311
1700	9.78	8.141	1.438	0.306
1720	9.723	8.104	1.424	0.301
1740	9.667	8.078	1.411	0.295
1760	9.61	8.049	1.397	0.289
1780	9.555	8.013	1.383	0.284
1800	9.5	7.994	1.372	0.277
1820	9.438	7.97	1.358	0.269
1840	9.385	7.934	1.344	0.265
1860	9.329	7.899	1.33	0.26
1880	9.27	7.865	1.316	0.255
1900	9.22	7.839	1.305	0.25
1920	9.172	7.803	1.292	0.246
1940	9.119	7.769	1.279	0.242
1960	9.067	7.742	1.267	0.237
1980	9.02	7.71	1.255	0.233
2000	8.969	7.676	1.243	0.229
2020	8.925	7.642	1.231	0.227
2040	8.877	7.608	1.219	0.223
2060	8.838	7.574	1.208	0.221
2080	8.793	7.542	1.197	0.218
2100	8.754	7.508	1.186	0.216
2120	8.721	7.474	1.176	0.215
2140	8.69	7.448	1.168	0.214
2160	8.654	7.423	1.159	0.211
2180	8.622	7.398	1.151	0.209
2200	8.582	7.38	1.143	0.205
2220	8.546	7.356	1.134	0.203
2240	8.51	7.34	1.127	0.199
2260	8.477	7.322	1.12	0.196
2280	8.434	7.298	1.111	0.192
2300	8.395	7.281	1.103	0.188
2320	8.355	7.258	1.094	0.185
2340	8.321	7.234	1.086	0.183
2360	8.282	7.211	1.077	0.18
2380	8.244	7.188	1.069	0.177
2400	8.207	7.165	1.061	0.174
2420	8.17	7.15	1.054	0.171
2440	8.132	7.127	1.045	0.168
2460	8.094	7.105	1.037	0.165
2480	8.059	7.074	1.028	0.163
2500	8.022	7.052	1.02	0.16
2520	7.988	7.023	1.012	0.159
2540	7.954	6.994	1.003	0.157
2560	7.928	6.972	0.997	0.156
2580	7.902	6.949	0.99	0.155
2600	7.874	6.927	0.983	0.154
2620	7.849	6.904	0.977	0.153
2640	7.817	6.889	0.971	0.15
2660	7.787	6.867	0.964	0.148
2680	7.757	6.851	0.958	0.146
2700	7.731	6.83	0.952	0.145
2720	7.7	6.809	0.945	0.143
2740	7.671	6.787	0.939	0.141
2760	7.644	6.766	0.932	0.14
2780	7.618	6.744	0.926	0.139
2800	7.593	6.724	0.92	0.138
2820	7.571	6.707	0.915	0.136
2840	7.547	6.693	0.911	0.135
2860	7.52	6.672	0.904	0.133
2880	7.492	6.652	0.898	0.132
2900	7.467	6.636	0.893	0.13
2920	7.441	6.622	0.888	0.128
2940	7.416	6.601	0.882	0.127
2960	7.396	6.587	0.878	0.126
2980	7.369	6.566	0.872	0.125
3000	7.349	6.547	0.867	0.124
3020	7.325	6.533	0.862	0.123
3040	7.3	6.517	0.857	0.121
3060	7.277	6.503	0.853	0.119
3080	7.254	6.485	0.848	0.118
3100	7.228	6.47	0.843	0.117
3120	7.206	6.456	0.838	0.115
3140	7.184	6.442	0.834	0.114
3160	7.161	6.422	0.829	0.113
3180	7.139	6.408	0.824	0.112
3200	7.113	6.39	0.819	0.11
3220	7.094	6.37	0.814	0.11
3240	7.074	6.356	0.81	0.109
3260	7.052	6.343	0.806	0.107
3280	7.033	6.325	0.801	0.107
3300	7.012	6.31	0.797	0.106
3320	6.992	6.296	0.793	0.105
3340	6.974	6.278	0.789	0.104
3360	6.956	6.269	0.786	0.103
3380	6.933	6.256	0.781	0.101
3400	6.913	6.243	0.777	0.1
3420	6.894	6.23	0.774	0.099
3440	6.876	6.21	0.769	0.099
3460	6.86	6.197	0.766	0.098
3480	6.837	6.184	0.762	0.097
3500	6.818	6.171	0.758	0.096
3520	6.796	6.158	0.754	0.095
3540	6.781	6.141	0.75	0.094
3560	6.762	6.128	0.746	0.093
3580	6.742	6.115	0.743	0.092
3600	6.728	6.098	0.739	0.092
3620	6.711	6.089	0.736	0.091
3640	6.691	6.072	0.732	0.091
3660	6.676	6.059	0.729	0.09
3680	6.659	6.047	0.725	0.089
3700	6.642	6.034	0.722	0.089
3720	6.623	6.021	0.718	0.087
3740	6.607	6.003	0.714	0.087
3760	6.595	5.992	0.712	0.087
3780	6.578	5.979	0.708	0.086
3800	6.564	5.967	0.705	0.086
3820	6.549	5.949	0.702	0.086
3840	6.539	5.936	0.699	0.086
3860	6.525	5.919	0.696	0.086
3880	6.514	5.906	0.693	0.086
3900	6.504	5.889	0.69	0.087
3920	6.497	5.877	0.688	0.087
3940	6.494	5.863	0.686	0.088
3960	6.491	5.851	0.684	0.089
3980	6.49	5.842	0.683	0.09
4000	6.503	5.831	0.683	0.092
4032.26	6.486	5.901	0.689	0.083
4065.04	6.432	5.883	0.681	0.079
4098.36	6.394	5.877	0.676	0.075
4132.23	6.351	5.873	0.671	0.07
4166.67	6.32	5.838	0.664	0.07
4201.68	6.286	5.807	0.657	0.069
4237.29	6.279	5.804	0.656	0.069
4273.5	6.247	5.79	0.651	0.066
4310.35	6.216	5.77	0.645	0.065
4347.83	6.194	5.752	0.641	0.064
4385.96	6.185	5.732	0.638	0.065
4424.78	6.152	5.742	0.636	0.06
4464.29	6.135	5.715	0.631	0.061
4504.5	6.101	5.707	0.626	0.058
4545.45	6.082	5.711	0.625	0.055
4587.16	6.041	5.698	0.619	0.052
4629.63	6.015	5.683	0.615	0.051
4672.9	5.992	5.68	0.612	0.048
4716.98	5.947	5.678	0.607	0.043
4761.9	5.909	5.659	0.601	0.041
4807.69	5.87	5.637	0.595	0.039
4854.37	5.845	5.626	0.591	0.037
4901.96	5.819	5.609	0.586	0.036
4950.5	5.8	5.593	0.583	0.036
5000	5.769	5.61	0.581	0.031
5050.5	5.721	5.622	0.577	0.024
5102.04	5.67	5.611	0.571	0.026
5154.64	5.61	5.594	0.564	0.03
5208.33	5.546	5.592	0.557	0.036
5263.16	5.494	5.568	0.55	0.039
5319.15	5.423	5.491	0.535	0.037
5376.34	5.431	5.467	0.533	0.034
5434.78	5.369	5.455	0.526	0.039
5494.5	5.338	5.412	0.519	0.037
5555.56	5.305	5.37	0.512	0.036
5617.98	5.281	5.359	0.509	0.037
5681.82	5.263	5.334	0.505	0.036
5747.13	5.215	5.325	0.499	0.04
5813.95	5.193	5.29	0.494	0.038
5882.35	5.149	5.28	0.489	0.042
5952.38	5.1271	5.256	0.484	0.042
6024.1	5.088	5.233	0.479	0.042
6097.56	5.047	5.214	0.473	0.044
6172.84	5.012	5.206	0.469	0.046
6250	4.975	5.171	0.463	0.046
6329.11	4.934	5.155	0.458	0.048
6470.26	4.899	5.139	0.453	0.049
6493.51	4.851	5.112	0.446	0.051
6578.95	4.824	5.096	0.443	0.052
6666.67	4.78	5.08	0.437	0.054
6756.76	4.736	5.06	0.432	0.056
6849.31	4.7	5.037	0.427	0.056
6944.44	4.646	5.006	0.419	0.058
7042.25	4.6171	4.993	0.415	0.059
7142.86	4.563	4.962	0.408	0.06
7246.38	4.537	4.941	0.404	0.06
7352.94	4.493	4.933	0.4	0.063
7462.69	4.436	4.911	0.393	0.065
7575.76	4.399	4.882	0.388	0.066
7692.31	4.35	4.867	0.382	0.068
7812.5	4.296	4.858	0.377	0.071
7936.51	4.243	4.826	0.37	0.072
8064.52	4.194	4.801	0.364	0.073
8196.72	4.14	4.773	0.357	0.075
8333.33	4.098	4.751	0.352	0.076
8474.58	4.032	4.741	0.346	0.08
8620.69	3.965	4.709	0.338	0.081
8771.93	3.908	4.673	0.331	0.082
8928.57	3.858	4.649	0.325	0.083
9090.91	3.793	4.624	0.318	0.085
9259.26	3.722	4.592	0.31	0.087
9433.96	3.657	4.55	0.302	0.088
9615.38	3.587	4.506	0.293	0.088
9803.92	3.521	4.457	0.285	0.088
10000	3.48	4.412	0.279	0.087
10204.08	3.409	4.382	0.272	0.089
10416.67	3.342	4.323	0.263	0.088
10638.3	3.287	4.265	0.255	0.086
10869.56	3.23	4.225	0.248	0.086
11111.11	3.177	4.161	0.241	0.084
11363.64	3.14	4.103	0.234	0.082
11627.91	3.103	4.066	0.23	0.081
11904.76	3.053	4.052	0.225	0.083
12195.12	2.985	4.011	0.218	0.093
12500	2.916	3.987	0.212	0.085
12820.51	2.835	3.932	0.204	0.085
13157.89	2.765	3.876	0.196	0.084
13513.51	2.702	3.819	0.189	0.083
13888.89	2.638	3.764	0.182	0.082
14285.71	2.575	3.71	0.175	0.081
14705.88	2.513	3.654	0.168	0.08
15151.51	2.45	3.606	0.162	0.079
15625	2.377	3.561	0.155	0.079
16129.03	2.296	3.501	0.148	0.078
16666.67	2.223	3.442	0.141	0.077
17241.38	2.138	3.38	0.133	0.077
17857.14	2.065	3.303	0.126	0.075
18518.52	1.988	3.239	0.119	0.073
19230.77	1.905	3.17	0.112	0.072
20000	1.816	3.093	0.104	0.07
20833.33	1.732	3.012	0.097	0.068
21739.13	1.639	2.926	0.089	0.066
22727.27	1.549	2.827	0.082	0.063
23809.52	1.46	2.724	0.074	0.06
25000	1.37	2.612	0.067	0.057
26315.79	1.287	2.484	0.06	0.053
27777.78	1.215	2.351	0.054	0.048
29411.76	1.148	2.219	0.048	0.044
31250	1.086	2.072	0.042	0.039
33333.33	1.048	1.921	0.038	0.034
35715.29	1.02	1.783	0.034	0.03
38461.54	1.001	1.652	0.031	0.027
41666.67	0.983	1.531	0.029	0.023
45454.55	0.957	1.421	0.026	0.021
