#FORMAT = WAVN n dn k dk
#DESCRIPTION = Refractive indices of amorphous nitric acid dihydrate at 153 K from 482 to 6160 cm<sup>-1</sup>.
#SUBSTANCE= a-NAD
#SAMPLEFORM= Thin Film
#TEMPERATURE= 153 K
#CONCENTRATION=   
#DOI=10.1029/94jd02388
#REFERENCE= O. B. Toon, M. A. Tolbert, B. G. Koehler, A. M. Middlebrook, and
## J. Jordan, Infrared optical constants of H2O-ice, amorphous acid
## solutions, and nitric acid hydrates, J. Geophys. Res., 99, 25631 - 25654,
## 1994.
#CONTACT= 
#COMMENT= Derived from 8 spectroscopic measurements of thin crystaline films.
 482 1.883 0.188 1.23E-001 1.2E-002
 490 1.847 0.185 1.33E-001 1.3E-002
 517 1.836 0.184 1.59E-001 1.6E-002
 540 1.831 0.183 1.73E-001 1.7E-002
 586 1.817 0.182 1.91E-001 1.9E-002
 602 1.818 0.182 1.89E-001 1.9E-002
 613 1.828 0.183 1.91E-001 1.9E-002
 621 1.838 0.184 2.02E-001 2.0E-002
 636 1.828 0.183 2.34E-001 2.3E-002
 644 1.818 0.182 2.38E-001 2.4E-002
 663 1.811 0.181 2.42E-001 2.4E-002
 683 1.810 0.181 2.64E-001 2.6E-002
 698 1.784 0.178 2.83E-001 2.8E-002
 714 1.765 0.176 2.75E-001 2.7E-002
 737 1.750 0.175 2.80E-001 2.8E-002
 752 1.738 0.174 2.70E-001 2.7E-002
 760 1.741 0.174 2.66E-001 2.7E-002
 771 1.744 0.174 2.80E-001 2.8E-002
 779 1.727 0.173 2.90E-001 2.9E-002
 787 1.713 0.171 2.74E-001 2.7E-002
 795 1.720 0.172 2.60E-001 2.6E-002
 802 1.732 0.173 2.65E-001 2.6E-002
 814 1.719 0.172 2.93E-001 2.9E-002
 822 1.698 0.170 2.89E-001 2.9E-002
 837 1.689 0.169 2.63E-001 2.6E-002
 868 1.693 0.169 2.49E-001 2.5E-002
 899 1.703 0.170 2.40E-001 2.4E-002
 914 1.715 0.171 2.39E-001 2.4E-002
 926 1.728 0.173 2.48E-001 2.5E-002
 937 1.733 0.173 2.73E-001 2.7E-002
 949 1.713 0.171 2.98E-001 3.0E-002
 957 1.691 0.169 2.98E-001 3.0E-002
 972 1.670 0.167 2.70E-001 2.7E-002
 995 1.696 0.170 2.43E-001 2.4E-002
1014 1.720 0.172 2.71E-001 2.7E-002
1030 1.696 0.170 3.09E-001 3.1E-002
1038 1.668 0.167 3.10E-001 3.1E-002
1049 1.643 0.164 2.65E-001 2.6E-002
1061 1.669 0.167 2.33E-001 2.3E-002
1076 1.698 0.170 2.38E-001 2.4E-002
1173 1.777 0.178 3.09E-001 3.1E-002
1219 1.824 0.182 4.19E-001 4.2E-002
1234 1.826 0.183 4.85E-001 4.9E-002
1254 1.789 0.179 5.95E-001 6.0E-002
1284 1.595 0.160 7.14E-001 7.1E-002
1311 1.349 0.135 6.66E-001 6.7E-002
1327 1.286 0.129 5.17E-001 5.2E-002
1338 1.297 0.130 4.35E-001 4.3E-002
1362 1.365 0.137 3.12E-001 3.1E-002
1385 1.467 0.147 3.15E-001 3.2E-002
1404 1.499 0.150 3.74E-001 3.7E-002
1439 1.420 0.142 4.65E-001 4.7E-002
1469 1.281 0.128 4.14E-001 4.1E-002
1485 1.249 0.125 3.32E-001 3.3E-002
1508 1.280 0.128 2.35E-001 2.3E-002
1543 1.358 0.136 1.79E-001 1.8E-002
1566 1.403 0.140 1.71E-001 1.7E-002
1589 1.442 0.144 1.77E-001 1.8E-002
1620 1.478 0.148 2.09E-001 2.1E-002
1647 1.487 0.149 2.51E-001 2.5E-002
1678 1.440 0.144 2.91E-001 2.9E-002
1697 1.420 0.142 2.70E-001 2.7E-002
1728 1.414 0.141 2.64E-001 2.6E-002
1782 1.384 0.138 2.48E-001 2.5E-002
1863 1.374 0.137 2.11E-001 2.1E-002
1921 1.373 0.137 1.84E-001 1.8E-002
1998 1.389 0.139 1.60E-001 1.6E-002
2071 1.405 0.140 1.51E-001 1.5E-002
2160 1.418 0.142 1.55E-001 1.5E-002
2222 1.417 0.142 1.62E-001 1.6E-002
2272 1.409 0.141 1.62E-001 1.6E-002
2322 1.403 0.140 1.55E-001 1.5E-002
2380 1.404 0.140 1.46E-001 1.5E-002
2511 1.416 0.142 1.42E-001 1.4E-002
2546 1.419 0.142 1.46E-001 1.5E-002
2619 1.413 0.141 1.55E-001 1.5E-002
2727 1.391 0.139 1.56E-001 1.6E-002
2831 1.387 0.139 1.42E-001 1.4E-002
2962 1.385 0.139 1.35E-001 1.4E-002
3032 1.386 0.139 1.35E-001 1.4E-002
3093 1.387 0.139 1.43E-001 1.4E-002
3178 1.369 0.137 1.55E-001 1.5E-002
3278 1.335 0.134 1.54E-001 1.5E-002
3359 1.305 0.130 1.37E-001 1.4E-002
3417 1.289 0.129 1.15E-001 1.2E-002
3498 1.280 0.128 7.95E-002 7.9E-003
3568 1.279 0.128 4.40E-002 4.4E-003
3606 1.291 0.129 2.10E-002 2.1E-003
3641 1.307 0.131 9.54E-003 9.5E-004
3649 1.310 0.131 9.06E-003 9.1E-004
3656 1.313 0.131 7.71E-003 7.7E-004
3660 1.315 0.132 6.34E-003 6.3E-004
3664 1.317 0.132 6.88E-003 6.9E-004
3683 1.323 0.132 5.26E-003 5.3E-004
3699 1.329 0.133 4.46E-003 4.5E-004
3703 1.330 0.133 5.48E-003 5.5E-004
3749 1.340 0.134 4.07E-003 4.1E-004
3791 1.347 0.135 3.94E-003 3.9E-004
3785 1.348 0.135 3.32E-003 3.3E-004
3803 1.350 0.135 3.28E-003 3.3E-004
3811 1.351 0.135 3.80E-003 3.8E-004
3872 1.359 0.136 3.32E-003 3.3E-004
3876 1.359 0.136 2.94E-003 2.9E-004
3896 1.361 0.136 3.14E-003 3.1E-004
3899 1.362 0.136 2.76E-003 2.8E-004
3950 1.367 0.137 2.91E-003 2.9E-004
3980 1.370 0.137 0.00E+000 0.0E+000
4115 1.380 0.138 0.00E+000 0.0E+000
4281 1.390 0.139 0.00E+000 0.0E+000
4505 1.400 0.140 0.00E+000 0.0E+000
4844 1.410 0.141 0.00E+000 0.0E+000
5338 1.420 0.142 0.00E+000 0.0E+000
6160 1.430 0.143 0.00E+000 0.0E+000