#DISTRIBUTEDBY=Aerosol Refractive Index Archive (www.atm.ox.ac.uk/project/RI/)
#DESCRIPTION=Refractive indices of Olivine from 0 to 5000 cm-1.
#SUBSTANCE=Olivine
#SAMPLEFORM=Solid
#TEMPERATURE=
#CONCENTRATION=
#REFERENCE=D. Fabian, Th. Henning, C. Jäger, H. Mutschke, J. Dorschner, O. Werhan, Astron. Astrophys. 378, 228 (2001).
#CONTACT=
#COMMENT=Optical constants in Y ORIENTATION (i.e. E||y) of a natural olivine single crystal
#FORMAT=WAVN N K 
 0.00000	2.698256	0.000000
 1.22100	2.698270	0.000100
 2.44170	2.698300	0.000200
 3.66240	2.698360	0.000300
 4.88310	2.698450	0.000401
 6.10380	2.698550	0.000501
 7.32450	2.698680	0.000601
 8.54520	2.698840	0.000702
 9.76590	2.699010	0.000802
 10.98660	2.699220	0.000903
 12.20730	2.699440	0.001000
 13.42800	2.699690	0.001100
 14.64870	2.699960	0.001210
 15.86940	2.700260	0.001310
 17.09010	2.700580	0.001410
 18.31080	2.700930	0.001510
 19.53150	2.701300	0.001610
 20.75220	2.701700	0.001720
 21.97290	2.702110	0.001820
 23.19360	2.702560	0.001920
 24.41430	2.703030	0.002030
 25.63500	2.703520	0.002130
 26.85570	2.704040	0.002230
 28.07640	2.704580	0.002340
 29.29710	2.705150	0.002450
 30.51780	2.705740	0.002550
 31.73850	2.706360	0.002660
 32.95920	2.707000	0.002760
 34.17990	2.707670	0.002870
 35.40060	2.708370	0.002980
 36.62130	2.709090	0.003090
 37.84200	2.709840	0.003200
 39.06270	2.710610	0.003310
 40.28340	2.711410	0.003420
 41.50410	2.712240	0.003530
 42.72480	2.713090	0.003640
 43.94550	2.713970	0.003750
 45.16620	2.714880	0.003870
 46.38690	2.715820	0.003980
 47.60760	2.716780	0.004100
 48.82830	2.717770	0.004210
 50.04900	2.718800	0.004330
 51.26969	2.719850	0.004450
 52.49039	2.720920	0.004570
 53.71109	2.722030	0.004690
 54.93179	2.723170	0.004810
 56.15249	2.724340	0.004930
 57.37319	2.725540	0.005060
 58.59389	2.726760	0.005180
 59.81459	2.728020	0.005310
 61.03529	2.729320	0.005430
 62.25599	2.730640	0.005560
 63.47669	2.732000	0.005690
 64.69739	2.733380	0.005820
 65.91809	2.734810	0.005960
 67.13879	2.736260	0.006090
 68.35949	2.737750	0.006230
 69.58019	2.739280	0.006370
 70.80089	2.740840	0.006510
 72.02159	2.742440	0.006650
 73.24229	2.744070	0.006790
 74.46299	2.745750	0.006940
 75.68369	2.747460	0.007090
 76.90439	2.749210	0.007240
 78.12509	2.751000	0.007390
 79.34579	2.752830	0.007550
 80.56649	2.754700	0.007710
 81.78719	2.756620	0.007870
 83.00789	2.758580	0.008040
 84.22859	2.760590	0.008200
 85.44929	2.762640	0.008380
 86.66999	2.764740	0.008550
 87.89069	2.766890	0.008730
 89.11139	2.769090	0.008910
 90.33209	2.771340	0.009100
 91.55279	2.773650	0.009300
 92.77349	2.776020	0.009490
 93.99419	2.778440	0.009700
 95.21489	2.780930	0.009910
 96.43559	2.783480	0.010130
 97.65629	2.786100	0.010350
 98.87699	2.788790	0.010590
 100.09769	2.791550	0.010830
 101.31839	2.794390	0.011080
 102.53909	2.797310	0.011350
 103.75979	2.800320	0.011620
 104.98049	2.803430	0.011910
 106.20119	2.806640	0.012220
 107.42189	2.809950	0.012550
 108.64259	2.813380	0.012900
 109.86329	2.816950	0.013270
 111.08399	2.820650	0.013670
 112.30469	2.824500	0.014110
 113.52539	2.828520	0.014580
 114.74609	2.832740	0.015110
 115.96679	2.837170	0.015690
 117.18749	2.841840	0.016340
 118.40819	2.846780	0.017090
 119.62889	2.852060	0.017950
 120.84959	2.857700	0.018950
 122.07029	2.863790	0.020130
 123.29099	2.870420	0.021560
 124.51169	2.877700	0.023330
 125.73239	2.885780	0.025560
 126.95309	2.894870	0.028440
 128.17379	2.905250	0.032290
 129.39449	2.917280	0.037630
 130.61519	2.931460	0.045340
 131.83589	2.948360	0.057030
 133.05659	2.968380	0.075800
 134.27729	2.990460	0.107770
 135.49799	3.006710	0.163930
 136.71869	2.986320	0.252330
 137.93939	2.879940	0.322530
 139.16009	2.754460	0.279110
 140.38079	2.713510	0.187820
 141.60149	2.723580	0.123230
 142.82219	2.745400	0.086110
 144.04289	2.766610	0.064770
 145.26359	2.784950	0.051900
 146.48429	2.800560	0.043730
 147.70499	2.814000	0.038310
 148.92569	2.825800	0.034590
 150.14639	2.836350	0.031970
 151.36708	2.845940	0.030100
 152.58778	2.854810	0.028740
 153.80848	2.863120	0.027760
 155.02918	2.870990	0.027050
 156.24988	2.878510	0.026550
 157.47058	2.885780	0.026210
 158.69128	2.892830	0.025990
 159.91198	2.899730	0.025880
 161.13268	2.906510	0.025850
 162.35338	2.913200	0.025890
 163.57408	2.919830	0.025990
 164.79478	2.926420	0.026140
 166.01548	2.932990	0.026340
 167.23618	2.939560	0.026570
 168.45688	2.946140	0.026840
 169.67758	2.952740	0.027140
 170.89828	2.959370	0.027460
 172.11898	2.966050	0.027820
 173.33968	2.972790	0.028200
 174.56038	2.979580	0.028610
 175.78108	2.986450	0.029030
 177.00178	2.993390	0.029490
 178.22248	3.000420	0.029960
 179.44318	3.007540	0.030460
 180.66388	3.014760	0.030970
 181.88458	3.022080	0.031510
 183.10528	3.029510	0.032080
 184.32598	3.037060	0.032660
 185.54668	3.044730	0.033270
 186.76738	3.052530	0.033900
 187.98808	3.060470	0.034550
 189.20878	3.068540	0.035230
 190.42948	3.076760	0.035930
 191.65018	3.085140	0.036660
 192.87088	3.093670	0.037420
 194.09158	3.102380	0.038200
 195.31228	3.111250	0.039020
 196.53298	3.120310	0.039860
 197.75368	3.129550	0.040730
 198.97438	3.138990	0.041640
 200.19508	3.148630	0.042580
 201.41578	3.158480	0.043560
 202.63648	3.168550	0.044580
 203.85718	3.178850	0.045630
 205.07788	3.189390	0.046730
 206.29858	3.200170	0.047870
 207.51928	3.211210	0.049060
 208.73998	3.222520	0.050300
 209.96068	3.234110	0.051580
 211.18138	3.246000	0.052930
 212.40208	3.258180	0.054330
 213.62278	3.270690	0.055790
 214.84348	3.283520	0.057310
 216.06418	3.296700	0.058910
 217.28488	3.310250	0.060580
 218.50558	3.324170	0.062330
 219.72628	3.338490	0.064160
 220.94698	3.353230	0.066080
 222.16768	3.368400	0.068090
 223.38838	3.384030	0.070210
 224.60908	3.400140	0.072440
 225.82978	3.416760	0.074780
 227.05048	3.433910	0.077250
 228.27118	3.451620	0.079860
 229.49188	3.469930	0.082620
 230.71258	3.488860	0.085540
 231.93328	3.508450	0.088630
 233.15398	3.528740	0.091900
 234.37468	3.549770	0.095380
 235.59538	3.571590	0.099090
 236.81608	3.594250	0.103030
 238.03678	3.617800	0.107240
 239.25748	3.642300	0.111750
 240.47818	3.667820	0.116570
 241.69888	3.694420	0.121750
 242.91958	3.722180	0.127320
 244.14028	3.751190	0.133320
 245.36098	3.781540	0.139800
 246.58168	3.813340	0.146820
 247.80238	3.846700	0.154440
 249.02308	3.881750	0.162740
 250.24378	3.918630	0.171800
 251.46447	3.957510	0.181720
 252.68517	3.998560	0.192620
 253.90587	4.041980	0.204640
 255.12657	4.088010	0.217940
 256.34727	4.136900	0.232730
 257.56797	4.188940	0.249220
 258.78867	4.244470	0.267720
 260.00937	4.303880	0.288570
 261.23007	4.367580	0.312190
 262.45077	4.436080	0.339110
 263.67147	4.509960	0.369990
 264.89217	4.589870	0.405670
 266.11287	4.676550	0.447200
 267.33357	4.770840	0.495940
 268.55427	4.873690	0.553670
 269.77497	4.986130	0.622730
 270.99567	5.109200	0.706250
 272.21637	5.243840	0.808440
 273.43707	5.390660	0.935000
 274.65777	5.549370	1.093760
 275.87847	5.717790	1.295390
 277.09917	5.889800	1.554030
 278.31987	6.051740	1.887360
 279.54057	6.176560	2.314100
 280.76127	6.216690	2.844710
 281.98197	6.103720	3.460810
 283.20267	5.772380	4.089020
 284.42337	5.216170	4.605620
 285.64407	4.521300	4.904070
 286.86477	3.816980	4.964860
 288.08547	3.196050	4.844180
 289.30617	2.691300	4.616240
 290.52687	2.297260	4.337690
 291.74757	1.994900	4.042350
 292.96827	1.764410	3.747590
 294.18897	1.589590	3.461140
 295.40967	1.458340	3.185550
 296.63037	1.362160	2.920910
 297.85107	1.295380	2.666160
 299.07177	1.254630	2.419960
 300.29247	1.238390	2.181160
 301.51317	1.246700	1.949440
 302.73387	1.280690	1.725910
 303.95457	1.341590	1.513910
 305.17527	1.429040	1.318950
 306.39597	1.539300	1.147220
 307.61667	1.665360	1.002760
 308.83737	1.799300	0.885750
 310.05807	1.934860	0.793250
 311.27877	2.068330	0.721110
 312.49947	2.198040	0.665350
 313.72017	2.323610	0.622700
 314.94087	2.445360	0.590690
 316.16157	2.563950	0.567490
 317.38227	2.680190	0.551830
 318.60297	2.794960	0.542840
 319.82367	2.909150	0.539980
 321.04437	3.023660	0.542980
 322.26507	3.139410	0.551840
 323.48577	3.257350	0.566780
 324.70647	3.378490	0.588270
 325.92717	3.503830	0.617080
 327.14787	3.634500	0.654310
 328.36857	3.771680	0.701540
 329.58927	3.916610	0.760890
 330.80997	4.070510	0.835280
 332.03067	4.234550	0.928740
 333.25137	4.409520	1.046780
 334.47207	4.595350	1.196980
 335.69277	4.790090	1.389740
 336.91347	4.987920	1.638870
 338.13417	5.175620	1.961710
 339.35487	5.326710	2.376380
 340.57557	5.394690	2.892590
 341.79627	5.313350	3.490930
 343.01697	5.021920	4.098500
 344.23767	4.519120	4.596740
 345.45837	3.891090	4.889170
 346.67907	3.258690	4.963660
 347.89977	2.704370	4.875650
 349.12047	2.255100	4.693630
 350.34117	1.904180	4.468480
 351.56186	1.633630	4.230110
 352.78256	1.425280	3.993780
 354.00326	1.264260	3.766220
 355.22396	1.139420	3.549750
 356.44466	1.042650	3.344470
 357.66536	0.968190	3.149470
 358.88606	0.911970	2.963390
 360.10676	0.871220	2.784730
 361.32746	0.844210	2.612000
 362.54816	0.830040	2.443840
 363.76886	0.828550	2.278990
 364.98956	0.840340	2.116520
 366.21026	0.866770	1.955920
 367.43096	0.909930	1.797500
 368.65166	0.972470	1.642820
 369.87236	1.056970	1.495310
 371.09306	1.164610	1.360390
 372.31376	1.293850	1.244420
 373.53446	1.440150	1.152570
 374.75516	1.597720	1.087200
 375.97586	1.761580	1.048280
 377.19656	1.928520	1.034820
 378.41726	2.096790	1.046260
 379.63796	2.265420	1.083240
 380.85866	2.433290	1.148000
 382.07936	2.598160	1.244500
 383.30006	2.755280	1.378330
 384.52076	2.895620	1.555950
 385.74146	3.003510	1.782270
 386.96216	3.055340	2.055320
 388.18286	3.023060	2.357860
 389.40356	2.887090	2.651550
 390.62426	2.654680	2.885530
 391.84496	2.364790	3.021350
 393.06566	2.068440	3.052120
 394.28636	1.804310	2.997180
 395.50706	1.590660	2.883990
 396.72776	1.431480	2.735650
 397.94846	1.324980	2.567620
 399.16916	1.269490	2.389570
 400.38986	1.266490	2.208720
 401.61056	1.321720	2.034440
 402.83126	1.443220	1.883780
 404.05196	1.634100	1.785990
 405.27266	1.881780	1.780540
 406.49336	2.149270	1.909760
 407.71406	2.361210	2.207100
 408.93476	2.389590	2.647880
 410.15546	2.137910	3.066850
 411.37616	1.713240	3.266470
 412.59686	1.314210	3.243600
 413.81756	1.021620	3.108500
 415.03826	0.824220	2.941050
 416.25896	0.692200	2.774790
 417.47966	0.602530	2.619920
 418.70036	0.540590	2.477860
 419.92106	0.497490	2.347330
 421.14176	0.467830	2.226380
 422.36246	0.448300	2.113130
 423.58316	0.436910	2.005910
 424.80386	0.432520	1.903360
 426.02456	0.434610	1.804330
 427.24526	0.443130	1.707910
 428.46596	0.458450	1.613400
 429.68666	0.481350	1.520430
 430.90736	0.512980	1.429030
 432.12806	0.554900	1.339810
 433.34876	0.608790	1.254270
 434.56946	0.676150	1.175100
 435.79016	0.757500	1.106090
 437.01086	0.851750	1.051660
 438.23156	0.956060	1.015770
 439.45226	1.066450	1.001210
 440.67296	1.178710	1.009640
 441.89366	1.288630	1.042170
 443.11436	1.391650	1.099870
 444.33506	1.481980	1.183620
 445.55576	1.551860	1.293130
 446.77646	1.591470	1.425040
 447.99716	1.590650	1.570630
 449.21786	1.542860	1.714700
 450.43856	1.450160	1.838390
 451.65925	1.324830	1.925870
 452.87995	1.184900	1.970490
 454.10065	1.047030	1.975370
 455.32135	0.922000	1.949280
 456.54205	0.814450	1.901960
 457.76275	0.724850	1.841520
 458.98345	0.651560	1.773690
 460.20415	0.592250	1.702190
 461.42485	0.544630	1.629210
 462.64555	0.506700	1.556000
 463.86625	0.476840	1.483150
 465.08695	0.453790	1.410870
 466.30765	0.436640	1.339140
 467.52835	0.424760	1.267790
 468.74905	0.417750	1.196590
 469.96975	0.415480	1.125250
 471.19045	0.418020	1.053500
 472.41115	0.425720	0.981110
 473.63185	0.439170	0.908010
 474.85255	0.459250	0.834330
 476.07325	0.487080	0.760710
 477.29395	0.523740	0.688410
 478.51465	0.569900	0.619520
 479.73535	0.625190	0.556540
 480.95605	0.687990	0.501680
 482.17675	0.755950	0.456060
 483.39745	0.826810	0.419600
 484.61815	0.899030	0.391460
 485.83885	0.971830	0.370650
 487.05955	1.045070	0.356320
 488.28025	1.119030	0.347970
 489.50095	1.194280	0.345510
 490.72165	1.271610	0.349340
 491.94235	1.351990	0.360520
 493.16305	1.436440	0.381060
 494.38375	1.525830	0.414460
 495.60445	1.620140	0.466640
 496.82515	1.716400	0.547250
 498.04585	1.803260	0.670180
 499.26655	1.850080	0.847040
 500.48725	1.802210	1.058050
 501.70795	1.631590	1.217020
 502.92865	1.412050	1.239990
 504.14935	1.247020	1.146180
 505.37005	1.173320	1.006260
 506.59075	1.177540	0.872970
 507.81145	1.232270	0.770790
 509.03215	1.313320	0.704760
 510.25285	1.405370	0.670770
 511.47355	1.500820	0.663110
 512.69425	1.596460	0.677670
 513.91495	1.690880	0.712560
 515.13565	1.782910	0.767790
 516.35635	1.870630	0.844860
 517.57705	1.950460	0.946240
 518.79775	2.016150	1.074510
 520.01845	2.058040	1.230600
 521.23915	2.063130	1.410880
 522.45985	2.017940	1.603670
 523.68055	1.914890	1.788060
 524.90125	1.759430	1.939120
 526.12195	1.570880	2.038430
 527.34265	1.374080	2.081710
 528.56335	1.189130	2.077310
 529.78405	1.026820	2.038920
 531.00475	0.890080	1.979520
 532.22545	0.777290	1.908870
 533.44615	0.685070	1.833370
 534.66685	0.609760	1.756840
 535.88755	0.548070	1.681460
 537.10825	0.497300	1.608320
 538.32895	0.455280	1.537890
 539.54965	0.420310	1.470300
 540.77035	0.391080	1.405480
 541.99105	0.366560	1.343240
 543.21175	0.345940	1.283360
 544.43245	0.328620	1.225580
 545.65315	0.314110	1.169660
 546.87385	0.302030	1.115340
 548.09455	0.292090	1.062400
 549.31525	0.284100	1.010590
 550.53595	0.277890	0.959710
 551.75664	0.273370	0.909550
 552.97734	0.270500	0.859900
 554.19804	0.269290	0.810590
 555.41874	0.269820	0.761430
 556.63944	0.272230	0.712270
 557.86014	0.276730	0.662970
 559.08084	0.283630	0.613470
 560.30154	0.293360	0.563780
 561.52224	0.306430	0.514100
 562.74294	0.323400	0.464900
 563.96364	0.344730	0.416980
 565.18434	0.370570	0.371510
 566.40504	0.400450	0.329760
 567.62574	0.433310	0.292730
 568.84644	0.467770	0.260820
 570.06714	0.502540	0.233810
 571.28784	0.536690	0.211120
 572.50854	0.569660	0.192030
 573.72924	0.601170	0.175880
 574.94994	0.631130	0.162110
 576.17064	0.659550	0.150260
 577.39134	0.686500	0.139970
 578.61204	0.712080	0.130960
 579.83274	0.736370	0.123010
 581.05344	0.759480	0.115950
 582.27414	0.781510	0.109640
 583.49484	0.802530	0.103960
 584.71554	0.822630	0.098830
 585.93624	0.841880	0.094170
 587.15694	0.860340	0.089910
 588.37764	0.878070	0.086020
 589.59834	0.895130	0.082440
 590.81904	0.911560	0.079140
 592.03974	0.927410	0.076090
 593.26044	0.942710	0.073270
 594.48114	0.957500	0.070640
 595.70184	0.971820	0.068190
 596.92254	0.985680	0.065900
 598.14324	0.999130	0.063760
 599.36394	1.012190	0.061750
 600.58464	1.024870	0.059860
 601.80534	1.037200	0.058090
 603.02604	1.049200	0.056420
 604.24674	1.060890	0.054840
 605.46744	1.072280	0.053350
 606.68814	1.083390	0.051940
 607.90884	1.094230	0.050600
 609.12954	1.104820	0.049330
 610.35024	1.115160	0.048120
 611.57094	1.125280	0.046980
 612.79164	1.135180	0.045890
 614.01234	1.144870	0.044850
 615.23304	1.154360	0.043860
 616.45374	1.163660	0.042920
 617.67444	1.172770	0.042010
 618.89514	1.181720	0.041150
 620.11584	1.190500	0.040330
 621.33654	1.199110	0.039540
 622.55724	1.207580	0.038790
 623.77794	1.215900	0.038060
 624.99864	1.224080	0.037370
 626.21934	1.232130	0.036700
 627.44004	1.240040	0.036060
 628.66074	1.247830	0.035450
 629.88144	1.255510	0.034860
 631.10214	1.263070	0.034300
 632.32284	1.270520	0.033750
 633.54354	1.277860	0.033230
 634.76424	1.285100	0.032720
 635.98494	1.292240	0.032240
 637.20564	1.299290	0.031770
 638.42634	1.306250	0.031320
 639.64704	1.313120	0.030890
 640.86774	1.319910	0.030480
 642.08844	1.326620	0.030070
 643.30914	1.333250	0.029690
 644.52984	1.339800	0.029310
 645.75054	1.346280	0.028960
 646.97124	1.352690	0.028610
 648.19194	1.359040	0.028280
 649.41264	1.365320	0.027950
 650.63334	1.371540	0.027640
 651.85403	1.377700	0.027340
 653.07473	1.383810	0.027060
 654.29543	1.389850	0.026780
 655.51613	1.395850	0.026510
 656.73683	1.401790	0.026250
 657.95753	1.407690	0.026000
 659.17823	1.413540	0.025770
 660.39893	1.419340	0.025540
 661.61963	1.425100	0.025310
 662.84033	1.430820	0.025100
 664.06103	1.436500	0.024900
 665.28173	1.442140	0.024700
 666.50243	1.447740	0.024510
 667.72313	1.453310	0.024330
 668.94383	1.458850	0.024150
 670.16453	1.464350	0.023990
 671.38523	1.469830	0.023830
 672.60593	1.475280	0.023680
 673.82663	1.480700	0.023530
 675.04733	1.486090	0.023390
 676.26803	1.491460	0.023260
 677.48873	1.496810	0.023130
 678.70943	1.502140	0.023010
 679.93013	1.507450	0.022900
 681.15083	1.512740	0.022790
 682.37153	1.518010	0.022690
 683.59223	1.523260	0.022590
 684.81293	1.528500	0.022500
 686.03363	1.533730	0.022420
 687.25433	1.538950	0.022340
 688.47503	1.544150	0.022270
 689.69573	1.549350	0.022200
 690.91643	1.554540	0.022140
 692.13713	1.559720	0.022080
 693.35783	1.564890	0.022030
 694.57853	1.570060	0.021990
 695.79923	1.575230	0.021950
 697.01993	1.580400	0.021920
 698.24063	1.585560	0.021890
 699.46133	1.590730	0.021870
 700.68203	1.595900	0.021850
 701.90273	1.601070	0.021840
 703.12343	1.606240	0.021830
 704.34413	1.611420	0.021830
 705.56483	1.616610	0.021830
 706.78553	1.621810	0.021840
 708.00623	1.627020	0.021860
 709.22693	1.632230	0.021880
 710.44763	1.637460	0.021910
 711.66833	1.642710	0.021940
 712.88903	1.647970	0.021980
 714.10973	1.653240	0.022020
 715.33043	1.658530	0.022070
 716.55113	1.663850	0.022130
 717.77183	1.669180	0.022190
 718.99253	1.674530	0.022260
 720.21323	1.679910	0.022330
 721.43393	1.685320	0.022420
 722.65463	1.690750	0.022500
 723.87533	1.696200	0.022600
 725.09603	1.701690	0.022700
 726.31673	1.707210	0.022800
 727.53743	1.712770	0.022920
 728.75813	1.718360	0.023040
 729.97883	1.723980	0.023170
 731.19953	1.729650	0.023310
 732.42023	1.735350	0.023450
 733.64093	1.741100	0.023600
 734.86163	1.746890	0.023760
 736.08233	1.752730	0.023930
 737.30303	1.758620	0.024110
 738.52373	1.764560	0.024290
 739.74443	1.770550	0.024490
 740.96513	1.776590	0.024690
 742.18583	1.782700	0.024910
 743.40653	1.788860	0.025130
 744.62723	1.795090	0.025370
 745.84793	1.801380	0.025610
 747.06863	1.807740	0.025870
 748.28933	1.814170	0.026140
 749.51003	1.820680	0.026410
 750.73073	1.827260	0.026710
 751.95142	1.833920	0.027010
 753.17212	1.840670	0.027330
 754.39282	1.847500	0.027660
 755.61352	1.854420	0.028010
 756.83422	1.861440	0.028370
 758.05492	1.868550	0.028750
 759.27562	1.875770	0.029140
 760.49632	1.883090	0.029550
 761.71702	1.890520	0.029980
 762.93772	1.898070	0.030430
 764.15842	1.905730	0.030900
 765.37912	1.913530	0.031380
 766.59982	1.921450	0.031890
 767.82052	1.929510	0.032430
 769.04122	1.937710	0.032990
 770.26192	1.946060	0.033570
 771.48262	1.954560	0.034180
 772.70332	1.963230	0.034820
 773.92402	1.972060	0.035490
 775.14472	1.981080	0.036190
 776.36542	1.990270	0.036920
 777.58612	1.999660	0.037690
 778.80682	2.009250	0.038500
 780.02752	2.019060	0.039350
 781.24822	2.029090	0.040250
 782.46892	2.039350	0.041190
 783.68962	2.049860	0.042180
 784.91032	2.060630	0.043220
 786.13102	2.071670	0.044320
 787.35172	2.083000	0.045480
 788.57242	2.094640	0.046710
 789.79312	2.106590	0.048020
 791.01382	2.118880	0.049390
 792.23452	2.131520	0.050860
 793.45522	2.144550	0.052420
 794.67592	2.157980	0.054070
 795.89662	2.171840	0.055840
 797.11732	2.186150	0.057730
 798.33802	2.200950	0.059750
 799.55872	2.216270	0.061910
 800.77942	2.232140	0.064240
 802.00012	2.248600	0.066750
 803.22082	2.265710	0.069460
 804.44152	2.283500	0.072400
 805.66222	2.302040	0.075590
 806.88292	2.321380	0.079070
 808.10362	2.341590	0.082880
 809.32432	2.362750	0.087060
 810.54502	2.384950	0.091670
 811.76572	2.408290	0.096780
 812.98642	2.432870	0.102460
 814.20712	2.458830	0.108830
 815.42782	2.486320	0.116010
 816.64852	2.515500	0.124150
 817.86922	2.546570	0.133450
 819.08992	2.579760	0.144160
 820.31062	2.615340	0.156610
 821.53132	2.653590	0.171230
 822.75202	2.694880	0.188580
 823.97272	2.739580	0.209440
 825.19342	2.788100	0.234840
 826.41412	2.840840	0.266240
 827.63482	2.898080	0.305700
 828.85552	2.959800	0.356080
 830.07622	3.025240	0.421520
 831.29692	3.091960	0.507700
 832.51762	3.154090	0.622000
 833.73832	3.199100	0.772240
 834.95902	3.203980	0.961370
 836.17972	3.135890	1.174990
 837.40042	2.969900	1.367480
 838.62112	2.722930	1.473940
 839.84182	2.459520	1.457590
 841.06252	2.248020	1.336660
 842.28322	2.122360	1.160590
 843.50392	2.081250	0.977030
 844.72462	2.104110	0.816230
 845.94532	2.166560	0.689750
 847.16602	2.249650	0.596780
 848.38672	2.342000	0.531510
 849.60742	2.438020	0.487740
 850.82812	2.535550	0.460480
 852.04881	2.634150	0.446260
 853.26951	2.734280	0.442780
 854.49021	2.836830	0.448730
 855.71091	2.942910	0.463540
 856.93161	3.053790	0.487300
 858.15231	3.170880	0.520700
 859.37301	3.295700	0.565090
 860.59371	3.429880	0.622660
 861.81441	3.575180	0.696630
 863.03511	3.733280	0.791730
 864.25581	3.905530	0.914770
 865.47651	4.092140	1.075610
 866.69721	4.290610	1.288370
 867.91791	4.492180	1.572580
 869.13861	4.675060	1.952650
 870.35931	4.793490	2.450520
 871.58001	4.769620	3.061850
 872.80071	4.515540	3.714580
 874.02141	4.010880	4.261820
 875.24211	3.359100	4.575230
 876.46281	2.713250	4.643450
 877.68351	2.168130	4.543420
 878.90421	1.743990	4.359460
 880.12491	1.423800	4.146750
 881.34561	1.182660	3.933470
 882.56631	0.999070	3.731660
 883.78701	0.857090	3.545470
 885.00771	0.745440	3.375410
 886.22841	0.656190	3.220500
 887.44911	0.583750	3.079260
 888.66981	0.524150	2.950120
 889.89051	0.474500	2.831610
 891.11121	0.432680	2.722420
 892.33191	0.397090	2.621400
 893.55261	0.366550	2.527570
 894.77331	0.340130	2.440070
 895.99401	0.317100	2.358170
 897.21471	0.296900	2.281250
 898.43541	0.279080	2.208760
 899.65611	0.263280	2.140250
 900.87681	0.249190	2.075290
 902.09751	0.236590	2.013540
 903.31821	0.225280	1.954690
 904.53891	0.215080	1.898460
 905.75961	0.205850	1.844610
 906.98031	0.197490	1.792920
 908.20101	0.189900	1.743210
 909.42171	0.182990	1.695300
 910.64241	0.176680	1.649030
 911.86311	0.170920	1.604270
 913.08381	0.165660	1.560900
 914.30451	0.160850	1.518790
 915.52521	0.156450	1.477840
 916.74591	0.152430	1.437950
 917.96661	0.148760	1.399030
 919.18731	0.145410	1.361000
 920.40801	0.142370	1.323780
 921.62871	0.139610	1.287300
 922.84941	0.137120	1.251490
 924.07011	0.134880	1.216280
 925.29081	0.132900	1.181610
 926.51151	0.131150	1.147410
 927.73221	0.129640	1.113640
 928.95291	0.128350	1.080220
 930.17361	0.127300	1.047100
 931.39431	0.126490	1.014230
 932.61501	0.125910	0.981530
 933.83571	0.125580	0.948970
 935.05641	0.125510	0.916470
 936.27711	0.125720	0.883950
 937.49781	0.126230	0.851370
 938.71851	0.127080	0.818630
 939.93921	0.128290	0.785670
 941.15991	0.129920	0.752380
 942.38061	0.132030	0.718680
 943.60131	0.134710	0.684450
 944.82201	0.138070	0.649580
 946.04271	0.142260	0.613910
 947.26341	0.147480	0.577320
 948.48411	0.154000	0.539630
 949.70481	0.162200	0.500690
 950.92551	0.172640	0.460390
 952.14620	0.186060	0.418750
 953.36690	0.203440	0.376050
 954.58760	0.225910	0.333170
 955.80830	0.254300	0.291780
 957.02900	0.288400	0.254170
 958.24970	0.326630	0.222210
 959.47040	0.366760	0.196520
 960.69110	0.406980	0.176510
 961.91180	0.446280	0.161140
 963.13250	0.484330	0.149440
 964.35320	0.521170	0.140690
 965.57390	0.557020	0.134390
 966.79460	0.592190	0.130310
 968.01530	0.627060	0.128360
 969.23600	0.662050	0.128690
 970.45670	0.697610	0.131660
 971.67740	0.734230	0.137970
 972.89810	0.772430	0.148790
 974.11880	0.812560	0.166070
 975.33950	0.854430	0.193050
 976.56020	0.896160	0.234900
 977.78090	0.931170	0.298850
 979.00160	0.942570	0.390160
 980.22230	0.902160	0.496490
 981.44300	0.798250	0.572980
 982.66370	0.668480	0.579560
 983.88440	0.562410	0.524780
 985.10510	0.499450	0.440830
 986.32580	0.476490	0.352940
 987.54650	0.483120	0.275720
 988.76720	0.507070	0.215480
 989.98790	0.537940	0.171750
 991.20860	0.569560	0.140740
 992.42930	0.599340	0.118530
 993.65000	0.626580	0.102220
 994.87070	0.651280	0.089920
 996.09140	0.673720	0.080390
 997.31210	0.694210	0.072820
 998.53280	0.713020	0.066680
 999.75350	0.730400	0.061600
 1000.97420	0.746540	0.057340
 1002.19490	0.761630	0.053700
 1003.41560	0.775790	0.050570
 1004.63630	0.789140	0.047830
 1005.85700	0.801770	0.045410
 1007.07770	0.813760	0.043260
 1008.29840	0.825170	0.041340
 1009.51910	0.836070	0.039600
 1010.73980	0.846500	0.038020
 1011.96050	0.856510	0.036570
 1013.18120	0.866130	0.035250
 1014.40190	0.875380	0.034030
 1015.62260	0.884310	0.032890
 1016.84330	0.892930	0.031840
 1018.06400	0.901260	0.030860
 1019.28470	0.909330	0.029940
 1020.50540	0.917150	0.029070
 1021.72610	0.924730	0.028260
 1022.94680	0.932100	0.027490
 1024.16750	0.939250	0.026770
 1025.38820	0.946220	0.026080
 1026.60890	0.952990	0.025430
 1027.82960	0.959600	0.024810
 1029.05030	0.966030	0.024220
 1030.27100	0.972310	0.023660
 1031.49170	0.978430	0.023120
 1032.71240	0.984420	0.022600
 1033.93310	0.990260	0.022110
 1035.15380	0.995970	0.021640
 1036.37450	1.001560	0.021180
 1037.59520	1.007020	0.020750
 1038.81590	1.012370	0.020330
 1040.03660	1.017610	0.019920
 1041.25730	1.022740	0.019530
 1042.47800	1.027770	0.019160
 1043.69870	1.032690	0.018800
 1044.91940	1.037530	0.018450
 1046.14010	1.042260	0.018110
 1047.36080	1.046910	0.017780
 1048.58150	1.051480	0.017470
 1049.80220	1.055960	0.017160
 1051.02289	1.060360	0.016860
 1052.24359	1.064680	0.016580
 1053.46429	1.068920	0.016300
 1054.68499	1.073090	0.016030
 1055.90569	1.077190	0.015760
 1057.12639	1.081230	0.015510
 1058.34709	1.085190	0.015260
 1059.56779	1.089090	0.015020
 1060.78849	1.092930	0.014790
 1062.00919	1.096700	0.014560
 1063.22989	1.100420	0.014340
 1064.45059	1.104070	0.014120
 1065.67129	1.107670	0.013910
 1066.89199	1.111220	0.013710
 1068.11269	1.114710	0.013510
 1069.33339	1.118150	0.013310
 1070.55409	1.121540	0.013120
 1071.77479	1.124880	0.012930
 1072.99549	1.128170	0.012750
 1074.21619	1.131410	0.012580
 1075.43689	1.134610	0.012410
 1076.65759	1.137760	0.012240
 1077.87829	1.140870	0.012070
 1079.09899	1.143940	0.011910
 1080.31969	1.146960	0.011750
 1081.54039	1.149940	0.011600
 1082.76109	1.152890	0.011450
 1083.98179	1.155790	0.011300
 1085.20249	1.158660	0.011160
 1086.42319	1.161490	0.011020
 1087.64389	1.164280	0.010880
 1088.86459	1.167040	0.010750
 1090.08529	1.169760	0.010610
 1091.30599	1.172450	0.010480
 1092.52669	1.175100	0.010360
 1093.74739	1.177720	0.010230
 1094.96809	1.180310	0.010110
 1096.18879	1.182870	0.009990
 1097.40949	1.185390	0.009880
 1098.63019	1.187890	0.009760
 1099.85089	1.190360	0.009650
 1101.07159	1.192790	0.009540
 1102.29229	1.195200	0.009430
 1103.51299	1.197580	0.009320
 1104.73369	1.199940	0.009220
 1105.95439	1.202270	0.009120
 1107.17509	1.204570	0.009020
 1108.39579	1.206840	0.008920
 1109.61649	1.209090	0.008820
 1110.83719	1.211310	0.008730
 1112.05789	1.213510	0.008630
 1113.27859	1.215690	0.008540
 1114.49929	1.217840	0.008450
 1115.71999	1.219970	0.008360
 1116.94069	1.222080	0.008280
 1118.16139	1.224160	0.008190
 1119.38209	1.226220	0.008110
 1120.60279	1.228260	0.008030
 1121.82349	1.230280	0.007940
 1123.04419	1.232280	0.007860
 1124.26489	1.234260	0.007790
 1125.48559	1.236210	0.007710
 1126.70629	1.238150	0.007630
 1127.92699	1.240070	0.007560
 1129.14769	1.241970	0.007480
 1130.36839	1.243850	0.007410
 1131.58909	1.245710	0.007340
 1132.80979	1.247550	0.007270
 1134.03049	1.249380	0.007200
 1135.25119	1.251190	0.007130
 1136.47189	1.252980	0.007070
 1137.69259	1.254750	0.007000
 1138.91329	1.256500	0.006940
 1140.13399	1.258240	0.006870
 1141.35469	1.259970	0.006810
 1142.57539	1.261670	0.006750
 1143.79609	1.263360	0.006690
 1145.01679	1.265040	0.006630
 1146.23749	1.266700	0.006570
 1147.45819	1.268340	0.006510
 1148.67889	1.269970	0.006450
 1149.89959	1.271590	0.006390
 1151.12028	1.273190	0.006340
 1152.34098	1.274770	0.006280
 1153.56168	1.276350	0.006230
 1154.78238	1.277900	0.006170
 1156.00308	1.279450	0.006120
 1157.22378	1.280980	0.006070
 1158.44448	1.282500	0.006020
 1159.66518	1.284000	0.005970
 1160.88588	1.285490	0.005920
 1162.10658	1.286970	0.005870
 1163.32728	1.288440	0.005820
 1164.54798	1.289890	0.005770
 1165.76868	1.291330	0.005720
 1166.98938	1.292760	0.005680
 1168.21008	1.294180	0.005630
 1169.43078	1.295590	0.005590
 1170.65148	1.296980	0.005540
 1171.87218	1.298360	0.005500
 1173.09288	1.299730	0.005450
 1174.31358	1.301090	0.005410
 1175.53428	1.302440	0.005370
 1176.75498	1.303780	0.005320
 1177.97568	1.305110	0.005280
 1179.19638	1.306430	0.005240
 1180.41708	1.307730	0.005200
 1181.63778	1.309030	0.005160
 1182.85848	1.310310	0.005120
 1184.07918	1.311590	0.005080
 1185.29988	1.312860	0.005040
 1186.52058	1.314110	0.005010
 1187.74128	1.315360	0.004970
 1188.96198	1.316600	0.004930
 1190.18268	1.317820	0.004900
 1191.40338	1.319040	0.004860
 1192.62408	1.320250	0.004820
 1193.84478	1.321450	0.004790
 1195.06548	1.322640	0.004750
 1196.28618	1.323820	0.004720
 1197.50688	1.325000	0.004680
 1198.72758	1.326160	0.004650
 1199.94828	1.327320	0.004620
 1201.16898	1.328460	0.004580
 1202.38968	1.329600	0.004550
 1203.61038	1.330730	0.004520
 1204.83108	1.331860	0.004490
 1206.05178	1.332970	0.004450
 1207.27248	1.334080	0.004420
 1208.49318	1.335180	0.004390
 1209.71388	1.336270	0.004360
 1210.93458	1.337350	0.004330
 1212.15528	1.338430	0.004300
 1213.37598	1.339490	0.004270
 1214.59668	1.340550	0.004240
 1215.81738	1.341610	0.004210
 1217.03808	1.342650	0.004190
 1218.25878	1.343690	0.004160
 1219.47948	1.344720	0.004130
 1220.70018	1.345750	0.004100
 1221.92088	1.346760	0.004080
 1223.14158	1.347770	0.004050
 1224.36228	1.348780	0.004020
 1225.58298	1.349770	0.003990
 1226.80368	1.350760	0.003970
 1228.02438	1.351750	0.003940
 1229.24508	1.352720	0.003920
 1230.46578	1.353690	0.003890
 1231.68648	1.354660	0.003870
 1232.90718	1.355610	0.003840
 1234.12788	1.356570	0.003820
 1235.34858	1.357510	0.003790
 1236.56928	1.358450	0.003770
 1237.78998	1.359380	0.003740
 1239.01068	1.360310	0.003720
 1240.23138	1.361230	0.003700
 1241.45208	1.362140	0.003670
 1242.67278	1.363050	0.003650
 1243.89348	1.363960	0.003630
 1245.11418	1.364850	0.003610
 1246.33488	1.365740	0.003580
 1247.55558	1.366630	0.003560
 1248.77628	1.367510	0.003540
 1249.99698	1.368390	0.003520
 1251.21767	1.369260	0.003500
 1252.43837	1.370120	0.003480
 1253.65907	1.370980	0.003450
 1254.87977	1.371830	0.003430
 1256.10047	1.372680	0.003410
 1257.32117	1.373520	0.003390
 1258.54187	1.374360	0.003370
 1259.76257	1.375190	0.003350
 1260.98327	1.376020	0.003330
 1262.20397	1.376840	0.003310
 1263.42467	1.377660	0.003290
 1264.64537	1.378470	0.003270
 1265.86607	1.379280	0.003260
 1267.08677	1.380090	0.003240
 1268.30747	1.380880	0.003220
 1269.52817	1.381680	0.003200
 1270.74887	1.382470	0.003180
 1271.96957	1.383250	0.003160
 1273.19027	1.384030	0.003140
 1274.41097	1.384810	0.003130
 1275.63167	1.385580	0.003110
 1276.85237	1.386340	0.003090
 1278.07307	1.387100	0.003070
 1279.29377	1.387860	0.003060
 1280.51447	1.388610	0.003040
 1281.73517	1.389360	0.003020
 1282.95587	1.390110	0.003000
 1284.17657	1.390850	0.002990
 1285.39727	1.391580	0.002970
 1286.61797	1.392320	0.002950
 1287.83867	1.393040	0.002940
 1289.05937	1.393770	0.002920
 1290.28007	1.394490	0.002910
 1291.50077	1.395200	0.002890
 1292.72147	1.395910	0.002870
 1293.94217	1.396620	0.002860
 1295.16287	1.397330	0.002840
 1296.38357	1.398020	0.002830
 1297.60427	1.398720	0.002810
 1298.82497	1.399410	0.002800
 1300.04567	1.400100	0.002780
 1301.26637	1.400790	0.002770
 1302.48707	1.401470	0.002750
 1303.70777	1.402140	0.002740
 1304.92847	1.402820	0.002720
 1306.14917	1.403490	0.002710
 1307.36987	1.404150	0.002700
 1308.59057	1.404820	0.002680
 1309.81127	1.405480	0.002670
 1311.03197	1.406130	0.002650
 1312.25267	1.406780	0.002640
 1313.47337	1.407430	0.002630
 1314.69407	1.408080	0.002610
 1315.91477	1.408720	0.002600
 1317.13547	1.409360	0.002590
 1318.35617	1.409990	0.002570
 1319.57687	1.410630	0.002560
 1320.79757	1.411250	0.002550
 1322.01827	1.411880	0.002530
 1323.23897	1.412500	0.002520
 1324.45967	1.413120	0.002510
 1325.68037	1.413740	0.002500
 1326.90107	1.414350	0.002480
 1328.12177	1.414960	0.002470
 1329.34247	1.415560	0.002460
 1330.56317	1.416170	0.002450
 1331.78387	1.416770	0.002430
 1333.00457	1.417370	0.002420
 1334.22527	1.417960	0.002410
 1335.44597	1.418550	0.002400
 1336.66667	1.419140	0.002390
 1337.88737	1.419720	0.002370
 1339.10807	1.420310	0.002360
 1340.32877	1.420890	0.002350
 1341.54947	1.421460	0.002340
 1342.77017	1.422040	0.002330
 1343.99087	1.422610	0.002320
 1345.21157	1.423180	0.002310
 1346.43227	1.423740	0.002300
 1347.65297	1.424300	0.002280
 1348.87367	1.424860	0.002270
 1350.09437	1.425420	0.002260
 1351.31506	1.425970	0.002250
 1352.53576	1.426530	0.002240
 1353.75646	1.427070	0.002230
 1354.97716	1.427620	0.002220
 1356.19786	1.428160	0.002210
 1357.41856	1.428710	0.002200
 1358.63926	1.429240	0.002190
 1359.85996	1.429780	0.002180
 1361.08066	1.430310	0.002170
 1362.30136	1.430840	0.002160
 1363.52206	1.431370	0.002150
 1364.74276	1.431900	0.002140
 1365.96346	1.432420	0.002130
 1367.18416	1.432940	0.002120
 1368.40486	1.433460	0.002110
 1369.62556	1.433980	0.002100
 1370.84626	1.434490	0.002090
 1372.06696	1.435000	0.002080
 1373.28766	1.435510	0.002070
 1374.50836	1.436020	0.002060
 1375.72906	1.436520	0.002050
 1376.94976	1.437020	0.002040
 1378.17046	1.437520	0.002030
 1379.39116	1.438020	0.002020
 1380.61186	1.438520	0.002020
 1381.83256	1.439010	0.002010
 1383.05326	1.439500	0.002000
 1384.27396	1.439990	0.001990
 1385.49466	1.440470	0.001980
 1386.71536	1.440960	0.001970
 1387.93606	1.441440	0.001960
 1389.15676	1.441920	0.001950
 1390.37746	1.442400	0.001950
 1391.59816	1.442870	0.001940
 1392.81886	1.443340	0.001930
 1394.03956	1.443820	0.001920
 1395.26026	1.444280	0.001910
 1396.48096	1.444750	0.001900
 1397.70166	1.445220	0.001890
 1398.92236	1.445680	0.001890
 1400.14306	1.446140	0.001880
 1401.36376	1.446600	0.001870
 1402.58446	1.447050	0.001860
 1403.80516	1.447510	0.001850
 1405.02586	1.447960	0.001850
 1406.24656	1.448410	0.001840
 1407.46726	1.448860	0.001830
 1408.68796	1.449310	0.001820
 1409.90866	1.449750	0.001820
 1411.12936	1.450200	0.001810
 1412.35006	1.450640	0.001800
 1413.57076	1.451080	0.001790
 1414.79146	1.451510	0.001780
 1416.01216	1.451950	0.001780
 1417.23286	1.452380	0.001770
 1418.45356	1.452810	0.001760
 1419.67426	1.453240	0.001760
 1420.89496	1.453670	0.001750
 1422.11566	1.454100	0.001740
 1423.33636	1.454520	0.001730
 1424.55706	1.454940	0.001730
 1425.77776	1.455370	0.001720
 1426.99846	1.455780	0.001710
 1428.21916	1.456200	0.001700
 1429.43986	1.456620	0.001700
 1430.66056	1.457030	0.001690
 1431.88126	1.457440	0.001680
 1433.10196	1.457850	0.001680
 1434.32266	1.458260	0.001670
 1435.54336	1.458670	0.001660
 1436.76406	1.459070	0.001660
 1437.98476	1.459480	0.001650
 1439.20546	1.459880	0.001640
 1440.42616	1.460280	0.001640
 1441.64686	1.460680	0.001630
 1442.86756	1.461080	0.001620
 1444.08826	1.461470	0.001620
 1445.30896	1.461870	0.001610
 1446.52966	1.462260	0.001600
 1447.75036	1.462650	0.001600
 1448.97106	1.463040	0.001590
 1450.19176	1.463430	0.001590
 1451.41245	1.463810	0.001580
 1452.63315	1.464200	0.001570
 1453.85385	1.464580	0.001570
 1455.07455	1.464960	0.001560
 1456.29525	1.465340	0.001550
 1457.51595	1.465720	0.001550
 1458.73665	1.466090	0.001540
 1459.95735	1.466470	0.001540
 1461.17805	1.466840	0.001530
 1462.39875	1.467220	0.001520
 1463.61945	1.467590	0.001520
 1464.84015	1.467960	0.001510
 1466.06085	1.468320	0.001510
 1467.28155	1.468690	0.001500
 1468.50225	1.469060	0.001500
 1469.72295	1.469420	0.001490
 1470.94365	1.469780	0.001480
 1472.16435	1.470140	0.001480
 1473.38505	1.470500	0.001470
 1474.60575	1.470860	0.001470
 1475.82645	1.471220	0.001460
 1477.04715	1.471570	0.001460
 1478.26785	1.471930	0.001450
 1479.48855	1.472280	0.001440
 1480.70925	1.472630	0.001440
 1481.92995	1.472980	0.001430
 1483.15065	1.473330	0.001430
 1484.37135	1.473680	0.001420
 1485.59205	1.474020	0.001420
 1486.81275	1.474370	0.001410
 1488.03345	1.474710	0.001410
 1489.25415	1.475050	0.001400
 1490.47485	1.475390	0.001400
 1491.69555	1.475730	0.001390
 1492.91625	1.476070	0.001390
 1494.13695	1.476410	0.001380
 1495.35765	1.476740	0.001380
 1496.57835	1.477080	0.001370
 1497.79905	1.477410	0.001370
 1499.01975	1.477740	0.001360
 1500.24045	1.478070	0.001360
 1501.46115	1.478400	0.001350
 1502.68185	1.478730	0.001350
 1503.90255	1.479050	0.001340
 1505.12325	1.479380	0.001340
 1506.34395	1.479710	0.001330
 1507.56465	1.480030	0.001330
 1508.78535	1.480350	0.001320
 1510.00605	1.480670	0.001320
 1511.22675	1.480990	0.001310
 1512.44745	1.481310	0.001310
 1513.66815	1.481630	0.001300
 1514.88885	1.481940	0.001300
 1516.10955	1.482260	0.001290
 1517.33025	1.482570	0.001290
 1518.55095	1.482880	0.001280
 1519.77165	1.483200	0.001280
 1520.99235	1.483510	0.001280
 1522.21305	1.483820	0.001270
 1523.43375	1.484120	0.001270
 1524.65445	1.484430	0.001260
 1525.87515	1.484740	0.001260
 1527.09585	1.485040	0.001250
 1528.31655	1.485350	0.001250
 1529.53725	1.485650	0.001240
 1530.75795	1.485950	0.001240
 1531.97865	1.486250	0.001240
 1533.19935	1.486550	0.001230
 1534.42005	1.486850	0.001230
 1535.64075	1.487150	0.001220
 1536.86145	1.487440	0.001220
 1538.08215	1.487740	0.001210
 1539.30285	1.488030	0.001210
 1540.52355	1.488330	0.001210
 1541.74425	1.488620	0.001200
 1542.96495	1.488910	0.001200
 1544.18565	1.489200	0.001190
 1545.40635	1.489490	0.001190
 1546.62705	1.489780	0.001190
 1547.84775	1.490070	0.001180
 1549.06845	1.490350	0.001180
 1550.28915	1.490640	0.001170
 1551.50984	1.490920	0.001170
 1552.73054	1.491200	0.001160
 1553.95124	1.491490	0.001160
 1555.17194	1.491770	0.001160
 1556.39264	1.492050	0.001150
 1557.61334	1.492330	0.001150
 1558.83404	1.492610	0.001150
 1560.05474	1.492880	0.001140
 1561.27544	1.493160	0.001140
 1562.49614	1.493440	0.001130
 1563.71684	1.493710	0.001130
 1564.93754	1.493980	0.001130
 1566.15824	1.494260	0.001120
 1567.37894	1.494530	0.001120
 1568.59964	1.494800	0.001110
 1569.82034	1.495070	0.001110
 1571.04104	1.495340	0.001110
 1572.26174	1.495610	0.001100
 1573.48244	1.495870	0.001100
 1574.70314	1.496140	0.001100
 1575.92384	1.496410	0.001090
 1577.14454	1.496670	0.001090
 1578.36524	1.496930	0.001090
 1579.58594	1.497200	0.001080
 1580.80664	1.497460	0.001080
 1582.02734	1.497720	0.001080
 1583.24804	1.497980	0.001070
 1584.46874	1.498240	0.001070
 1585.68944	1.498500	0.001060
 1586.91014	1.498750	0.001060
 1588.13084	1.499010	0.001060
 1589.35154	1.499270	0.001050
 1590.57224	1.499520	0.001050
 1591.79294	1.499780	0.001050
 1593.01364	1.500030	0.001040
 1594.23434	1.500280	0.001040
 1595.45504	1.500530	0.001040
 1596.67574	1.500790	0.001030
 1597.89644	1.501040	0.001030
 1599.11714	1.501280	0.001030
 1600.33784	1.501530	0.001020
 1601.55854	1.501780	0.001020
 1602.77924	1.502030	0.001020
 1603.99994	1.502270	0.001010
 1605.22064	1.502520	0.001010
 1606.44134	1.502760	0.001010
 1607.66204	1.503010	0.001000
 1608.88274	1.503250	0.001000
 1610.10344	1.503490	0.000998
 1611.32414	1.503730	0.000995
 1612.54484	1.503970	0.000992
 1613.76554	1.504210	0.000989
 1614.98624	1.504450	0.000986
 1616.20694	1.504690	0.000983
 1617.42764	1.504930	0.000980
 1618.64834	1.505170	0.000977
 1619.86904	1.505400	0.000973
 1621.08974	1.505640	0.000970
 1622.31044	1.505870	0.000967
 1623.53114	1.506110	0.000964
 1624.75184	1.506340	0.000961
 1625.97254	1.506570	0.000958
 1627.19324	1.506800	0.000955
 1628.41394	1.507030	0.000952
 1629.63464	1.507260	0.000949
 1630.85534	1.507490	0.000947
 1632.07604	1.507720	0.000944
 1633.29674	1.507950	0.000941
 1634.51744	1.508180	0.000938
 1635.73814	1.508400	0.000935
 1636.95884	1.508630	0.000932
 1638.17954	1.508850	0.000929
 1639.40024	1.509080	0.000926
 1640.62094	1.509300	0.000924
 1641.84164	1.509530	0.000921
 1643.06234	1.509750	0.000918
 1644.28304	1.509970	0.000915
 1645.50374	1.510190	0.000912
 1646.72444	1.510410	0.000910
 1647.94514	1.510630	0.000907
 1649.16584	1.510850	0.000904
 1650.38654	1.511070	0.000901
 1651.60723	1.511280	0.000899
 1652.82793	1.511500	0.000896
 1654.04863	1.511720	0.000893
 1655.26933	1.511930	0.000891
 1656.49003	1.512150	0.000888
 1657.71073	1.512360	0.000885
 1658.93143	1.512580	0.000883
 1660.15213	1.512790	0.000880
 1661.37283	1.513000	0.000877
 1662.59353	1.513210	0.000875
 1663.81423	1.513420	0.000872
 1665.03493	1.513640	0.000869
 1666.25563	1.513850	0.000867
 1667.47633	1.514050	0.000864
 1668.69703	1.514260	0.000862
 1669.91773	1.514470	0.000859
 1671.13843	1.514680	0.000857
 1672.35913	1.514880	0.000854
 1673.57983	1.515090	0.000852
 1674.80053	1.515300	0.000849
 1676.02123	1.515500	0.000847
 1677.24193	1.515710	0.000844
 1678.46263	1.515910	0.000842
 1679.68333	1.516110	0.000839
 1680.90403	1.516310	0.000837
 1682.12473	1.516520	0.000834
 1683.34543	1.516720	0.000832
 1684.56613	1.516920	0.000830
 1685.78683	1.517120	0.000827
 1687.00753	1.517320	0.000825
 1688.22823	1.517520	0.000822
 1689.44893	1.517720	0.000820
 1690.66963	1.517910	0.000818
 1691.89033	1.518110	0.000815
 1693.11103	1.518310	0.000813
 1694.33173	1.518500	0.000810
 1695.55243	1.518700	0.000808
 1696.77313	1.518890	0.000806
 1697.99383	1.519090	0.000803
 1699.21453	1.519280	0.000801
 1700.43523	1.519470	0.000799
 1701.65593	1.519670	0.000797
 1702.87663	1.519860	0.000794
 1704.09733	1.520050	0.000792
 1705.31803	1.520240	0.000790
 1706.53873	1.520430	0.000788
 1707.75943	1.520620	0.000785
 1708.98013	1.520810	0.000783
 1710.20083	1.521000	0.000781
 1711.42153	1.521190	0.000779
 1712.64223	1.521380	0.000776
 1713.86293	1.521560	0.000774
 1715.08363	1.521750	0.000772
 1716.30433	1.521930	0.000770
 1717.52503	1.522120	0.000768
 1718.74573	1.522310	0.000766
 1719.96643	1.522490	0.000763
 1721.18713	1.522670	0.000761
 1722.40783	1.522860	0.000759
 1723.62853	1.523040	0.000757
 1724.84923	1.523220	0.000755
 1726.06993	1.523400	0.000753
 1727.29063	1.523590	0.000751
 1728.51133	1.523770	0.000749
 1729.73203	1.523950	0.000747
 1730.95273	1.524130	0.000745
 1732.17343	1.524310	0.000742
 1733.39413	1.524490	0.000740
 1734.61483	1.524660	0.000738
 1735.83553	1.524840	0.000736
 1737.05623	1.525020	0.000734
 1738.27693	1.525200	0.000732
 1739.49763	1.525370	0.000730
 1740.71833	1.525550	0.000728
 1741.93903	1.525720	0.000726
 1743.15973	1.525900	0.000724
 1744.38043	1.526070	0.000722
 1745.60113	1.526250	0.000720
 1746.82183	1.526420	0.000718
 1748.04253	1.526590	0.000716
 1749.26323	1.526760	0.000714
 1750.48393	1.526940	0.000712
 1751.70462	1.527110	0.000711
 1752.92532	1.527280	0.000709
 1754.14602	1.527450	0.000707
 1755.36672	1.527620	0.000705
 1756.58742	1.527790	0.000703
 1757.80812	1.527960	0.000701
 1759.02882	1.528130	0.000699
 1760.24952	1.528300	0.000697
 1761.47022	1.528460	0.000695
 1762.69092	1.528630	0.000693
 1763.91162	1.528800	0.000692
 1765.13232	1.528960	0.000690
 1766.35302	1.529130	0.000688
 1767.57372	1.529300	0.000686
 1768.79442	1.529460	0.000684
 1770.01512	1.529630	0.000682
 1771.23582	1.529790	0.000681
 1772.45652	1.529950	0.000679
 1773.67722	1.530120	0.000677
 1774.89792	1.530280	0.000675
 1776.11862	1.530440	0.000673
 1777.33932	1.530600	0.000672
 1778.56002	1.530770	0.000670
 1779.78072	1.530930	0.000668
 1781.00142	1.531090	0.000666
 1782.22212	1.531250	0.000664
 1783.44282	1.531410	0.000663
 1784.66352	1.531570	0.000661
 1785.88422	1.531730	0.000659
 1787.10492	1.531880	0.000658
 1788.32562	1.532040	0.000656
 1789.54632	1.532200	0.000654
 1790.76702	1.532360	0.000652
 1791.98772	1.532510	0.000651
 1793.20842	1.532670	0.000649
 1794.42912	1.532830	0.000647
 1795.64982	1.532980	0.000646
 1796.87052	1.533140	0.000644
 1798.09122	1.533290	0.000642
 1799.31192	1.533450	0.000641
 1800.53262	1.533600	0.000639
 1801.75332	1.533760	0.000637
 1802.97402	1.533910	0.000636
 1804.19472	1.534060	0.000634
 1805.41542	1.534210	0.000632
 1806.63612	1.534370	0.000631
 1807.85682	1.534520	0.000629
 1809.07752	1.534670	0.000627
 1810.29822	1.534820	0.000626
 1811.51892	1.534970	0.000624
 1812.73962	1.535120	0.000623
 1813.96032	1.535270	0.000621
 1815.18102	1.535420	0.000619
 1816.40172	1.535570	0.000618
 1817.62242	1.535720	0.000616
 1818.84312	1.535860	0.000615
 1820.06382	1.536010	0.000613
 1821.28452	1.536160	0.000611
 1822.50522	1.536310	0.000610
 1823.72592	1.536450	0.000608
 1824.94662	1.536600	0.000607
 1826.16732	1.536750	0.000605
 1827.38802	1.536890	0.000604
 1828.60872	1.537040	0.000602
 1829.82942	1.537180	0.000601
 1831.05012	1.537320	0.000599
 1832.27082	1.537470	0.000598
 1833.49152	1.537610	0.000596
 1834.71222	1.537760	0.000595
 1835.93292	1.537900	0.000593
 1837.15362	1.538040	0.000592
 1838.37432	1.538180	0.000590
 1839.59502	1.538320	0.000589
 1840.81572	1.538470	0.000587
 1842.03642	1.538610	0.000586
 1843.25712	1.538750	0.000584
 1844.47782	1.538890	0.000583
 1845.69852	1.539030	0.000581
 1846.91922	1.539170	0.000580
 1848.13992	1.539310	0.000579
 1849.36062	1.539450	0.000577
 1850.58132	1.539590	0.000576
 1851.80201	1.539720	0.000574
 1853.02271	1.539860	0.000573
 1854.24341	1.540000	0.000571
 1855.46411	1.540140	0.000570
 1856.68481	1.540270	0.000569
 1857.90551	1.540410	0.000567
 1859.12621	1.540550	0.000566
 1860.34691	1.540680	0.000564
 1861.56761	1.540820	0.000563
 1862.78831	1.540950	0.000562
 1864.00901	1.541090	0.000560
 1865.22971	1.541220	0.000559
 1866.45041	1.541360	0.000557
 1867.67111	1.541490	0.000556
 1868.89181	1.541620	0.000555
 1870.11251	1.541760	0.000553
 1871.33321	1.541890	0.000552
 1872.55391	1.542020	0.000551
 1873.77461	1.542150	0.000549
 1874.99531	1.542290	0.000548
 1876.21601	1.542420	0.000547
 1877.43671	1.542550	0.000545
 1878.65741	1.542680	0.000544
 1879.87811	1.542810	0.000543
 1881.09881	1.542940	0.000541
 1882.31951	1.543070	0.000540
 1883.54021	1.543200	0.000539
 1884.76091	1.543330	0.000537
 1885.98161	1.543460	0.000536
 1887.20231	1.543590	0.000535
 1888.42301	1.543720	0.000534
 1889.64371	1.543840	0.000532
 1890.86441	1.543970	0.000531
 1892.08511	1.544100	0.000530
 1893.30581	1.544230	0.000528
 1894.52651	1.544350	0.000527
 1895.74721	1.544480	0.000526
 1896.96791	1.544610	0.000525
 1898.18861	1.544730	0.000523
 1899.40931	1.544860	0.000522
 1900.63001	1.544980	0.000521
 1901.85071	1.545110	0.000520
 1903.07141	1.545230	0.000518
 1904.29211	1.545360	0.000517
 1905.51281	1.545480	0.000516
 1906.73351	1.545600	0.000515
 1907.95421	1.545730	0.000514
 1909.17491	1.545850	0.000512
 1910.39561	1.545970	0.000511
 1911.61631	1.546100	0.000510
 1912.83701	1.546220	0.000509
 1914.05771	1.546340	0.000508
 1915.27841	1.546460	0.000506
 1916.49911	1.546580	0.000505
 1917.71981	1.546710	0.000504
 1918.94051	1.546830	0.000503
 1920.16121	1.546950	0.000502
 1921.38191	1.547070	0.000500
 1922.60261	1.547190	0.000499
 1923.82331	1.547310	0.000498
 1925.04401	1.547430	0.000497
 1926.26471	1.547550	0.000496
 1927.48541	1.547660	0.000495
 1928.70611	1.547780	0.000493
 1929.92681	1.547900	0.000492
 1931.14751	1.548020	0.000491
 1932.36821	1.548140	0.000490
 1933.58891	1.548260	0.000489
 1934.80961	1.548370	0.000488
 1936.03031	1.548490	0.000487
 1937.25101	1.548610	0.000485
 1938.47171	1.548720	0.000484
 1939.69241	1.548840	0.000483
 1940.91311	1.548950	0.000482
 1942.13381	1.549070	0.000481
 1943.35451	1.549190	0.000480
 1944.57521	1.549300	0.000479
 1945.79591	1.549420	0.000478
 1947.01661	1.549530	0.000477
 1948.23731	1.549640	0.000476
 1949.45801	1.549760	0.000474
 1950.67871	1.549870	0.000473
 1951.89940	1.549990	0.000472
 1953.12010	1.550100	0.000471
 1954.34080	1.550210	0.000470
 1955.56150	1.550320	0.000469
 1956.78220	1.550440	0.000468
 1958.00290	1.550550	0.000467
 1959.22360	1.550660	0.000466
 1960.44430	1.550770	0.000465
 1961.66500	1.550880	0.000464
 1962.88570	1.551000	0.000463
 1964.10640	1.551110	0.000462
 1965.32710	1.551220	0.000461
 1966.54780	1.551330	0.000459
 1967.76850	1.551440	0.000458
 1968.98920	1.551550	0.000457
 1970.20990	1.551660	0.000456
 1971.43060	1.551770	0.000455
 1972.65130	1.551880	0.000454
 1973.87200	1.551980	0.000453
 1975.09270	1.552090	0.000452
 1976.31340	1.552200	0.000451
 1977.53410	1.552310	0.000450
 1978.75480	1.552420	0.000449
 1979.97550	1.552530	0.000448
 1981.19620	1.552630	0.000447
 1982.41690	1.552740	0.000446
 1983.63760	1.552850	0.000445
 1984.85830	1.552950	0.000444
 1986.07900	1.553060	0.000443
 1987.29970	1.553170	0.000442
 1988.52040	1.553270	0.000441
 1989.74110	1.553380	0.000440
 1990.96180	1.553480	0.000439
 1992.18250	1.553590	0.000438
 1993.40320	1.553690	0.000437
 1994.62390	1.553800	0.000436
 1995.84460	1.553900	0.000435
 1997.06530	1.554010	0.000435
 1998.28600	1.554110	0.000434
 1999.50670	1.554220	0.000433
 2000.72740	1.554320	0.000432
 2001.94810	1.554420	0.000431
 2003.16880	1.554530	0.000430
 2004.38950	1.554630	0.000429
 2005.61020	1.554730	0.000428
 2006.83090	1.554830	0.000427
 2008.05160	1.554940	0.000426
 2009.27230	1.555040	0.000425
 2010.49300	1.555140	0.000424
 2011.71370	1.555240	0.000423
 2012.93440	1.555340	0.000422
 2014.15510	1.555440	0.000421
 2015.37580	1.555540	0.000420
 2016.59650	1.555650	0.000419
 2017.81720	1.555750	0.000419
 2019.03790	1.555850	0.000418
 2020.25860	1.555950	0.000417
 2021.47930	1.556050	0.000416
 2022.70000	1.556150	0.000415
 2023.92070	1.556240	0.000414
 2025.14140	1.556340	0.000413
 2026.36210	1.556440	0.000412
 2027.58280	1.556540	0.000411
 2028.80350	1.556640	0.000410
 2030.02420	1.556740	0.000410
 2031.24490	1.556840	0.000409
 2032.46560	1.556930	0.000408
 2033.68630	1.557030	0.000407
 2034.90700	1.557130	0.000406
 2036.12770	1.557230	0.000405
 2037.34840	1.557320	0.000404
 2038.56910	1.557420	0.000403
 2039.78980	1.557520	0.000403
 2041.01050	1.557610	0.000402
 2042.23120	1.557710	0.000401
 2043.45190	1.557810	0.000400
 2044.67260	1.557900	0.000399
 2045.89330	1.558000	0.000398
 2047.11400	1.558090	0.000397
 2048.33470	1.558190	0.000397
 2049.55540	1.558280	0.000396
 2050.77609	1.558380	0.000395
 2051.99679	1.558470	0.000394
 2053.21749	1.558570	0.000393
 2054.43819	1.558660	0.000392
 2055.65889	1.558750	0.000392
 2056.87959	1.558850	0.000391
 2058.10029	1.558940	0.000390
 2059.32099	1.559030	0.000389
 2060.54169	1.559130	0.000388
 2061.76239	1.559220	0.000387
 2062.98309	1.559310	0.000387
 2064.20379	1.559410	0.000386
 2065.42449	1.559500	0.000385
 2066.64519	1.559590	0.000384
 2067.86589	1.559680	0.000383
 2069.08659	1.559770	0.000383
 2070.30729	1.559870	0.000382
 2071.52799	1.559960	0.000381
 2072.74869	1.560050	0.000380
 2073.96939	1.560140	0.000379
 2075.19009	1.560230	0.000379
 2076.41079	1.560320	0.000378
 2077.63149	1.560410	0.000377
 2078.85219	1.560500	0.000376
 2080.07289	1.560590	0.000375
 2081.29359	1.560680	0.000375
 2082.51429	1.560770	0.000374
 2083.73499	1.560860	0.000373
 2084.95569	1.560950	0.000372
 2086.17639	1.561040	0.000372
 2087.39709	1.561130	0.000371
 2088.61779	1.561220	0.000370
 2089.83849	1.561310	0.000369
 2091.05919	1.561390	0.000368
 2092.27989	1.561480	0.000368
 2093.50059	1.561570	0.000367
 2094.72129	1.561660	0.000366
 2095.94199	1.561750	0.000365
 2097.16269	1.561830	0.000365
 2098.38339	1.561920	0.000364
 2099.60409	1.562010	0.000363
 2100.82479	1.562090	0.000362
 2102.04549	1.562180	0.000362
 2103.26619	1.562270	0.000361
 2104.48689	1.562350	0.000360
 2105.70759	1.562440	0.000359
 2106.92829	1.562530	0.000359
 2108.14899	1.562610	0.000358
 2109.36969	1.562700	0.000357
 2110.59039	1.562780	0.000356
 2111.81109	1.562870	0.000356
 2113.03179	1.562950	0.000355
 2114.25249	1.563040	0.000354
 2115.47319	1.563120	0.000354
 2116.69389	1.563210	0.000353
 2117.91459	1.563290	0.000352
 2119.13529	1.563380	0.000352
 2120.35599	1.563460	0.000351
 2121.57669	1.563540	0.000350
 2122.79739	1.563630	0.000349
 2124.01809	1.563710	0.000349
 2125.23879	1.563790	0.000348
 2126.45949	1.563880	0.000347
 2127.68019	1.563960	0.000347
 2128.90089	1.564040	0.000346
 2130.12159	1.564130	0.000345
 2131.34229	1.564210	0.000344
 2132.56299	1.564290	0.000344
 2133.78369	1.564370	0.000343
 2135.00439	1.564460	0.000342
 2136.22509	1.564540	0.000342
 2137.44579	1.564620	0.000341
 2138.66649	1.564700	0.000340
 2139.88719	1.564780	0.000340
 2141.10789	1.564860	0.000339
 2142.32859	1.564940	0.000338
 2143.54929	1.565020	0.000338
 2144.76999	1.565110	0.000337
 2145.99069	1.565190	0.000336
 2147.21139	1.565270	0.000336
 2148.43209	1.565350	0.000335
 2149.65279	1.565430	0.000334
 2150.87348	1.565510	0.000334
 2152.09418	1.565590	0.000333
 2153.31488	1.565670	0.000332
 2154.53558	1.565750	0.000332
 2155.75628	1.565820	0.000331
 2156.97698	1.565900	0.000330
 2158.19768	1.565980	0.000330
 2159.41838	1.566060	0.000329
 2160.63908	1.566140	0.000328
 2161.85978	1.566220	0.000328
 2163.08048	1.566300	0.000327
 2164.30118	1.566380	0.000326
 2165.52188	1.566450	0.000326
 2166.74258	1.566530	0.000325
 2167.96328	1.566610	0.000324
 2169.18398	1.566690	0.000324
 2170.40468	1.566760	0.000323
 2171.62538	1.566840	0.000323
 2172.84608	1.566920	0.000322
 2174.06678	1.567000	0.000321
 2175.28748	1.567070	0.000321
 2176.50818	1.567150	0.000320
 2177.72888	1.567220	0.000319
 2178.94958	1.567300	0.000319
 2180.17028	1.567380	0.000318
 2181.39098	1.567450	0.000318
 2182.61168	1.567530	0.000317
 2183.83238	1.567610	0.000316
 2185.05308	1.567680	0.000316
 2186.27378	1.567760	0.000315
 2187.49448	1.567830	0.000314
 2188.71518	1.567910	0.000314
 2189.93588	1.567980	0.000313
 2191.15658	1.568060	0.000313
 2192.37728	1.568130	0.000312
 2193.59798	1.568210	0.000311
 2194.81868	1.568280	0.000311
 2196.03938	1.568350	0.000310
 2197.26008	1.568430	0.000310
 2198.48078	1.568500	0.000309
 2199.70148	1.568580	0.000308
 2200.92218	1.568650	0.000308
 2202.14288	1.568720	0.000307
 2203.36358	1.568800	0.000307
 2204.58428	1.568870	0.000306
 2205.80498	1.568940	0.000305
 2207.02568	1.569020	0.000305
 2208.24638	1.569090	0.000304
 2209.46708	1.569160	0.000304
 2210.68778	1.569230	0.000303
 2211.90848	1.569310	0.000302
 2213.12918	1.569380	0.000302
 2214.34988	1.569450	0.000301
 2215.57058	1.569520	0.000301
 2216.79128	1.569600	0.000300
 2218.01198	1.569670	0.000300
 2219.23268	1.569740	0.000299
 2220.45338	1.569810	0.000298
 2221.67408	1.569880	0.000298
 2222.89478	1.569950	0.000297
 2224.11548	1.570020	0.000297
 2225.33618	1.570090	0.000296
 2226.55688	1.570170	0.000296
 2227.77758	1.570240	0.000295
 2228.99828	1.570310	0.000295
 2230.21898	1.570380	0.000294
 2231.43968	1.570450	0.000293
 2232.66038	1.570520	0.000293
 2233.88108	1.570590	0.000292
 2235.10178	1.570660	0.000292
 2236.32248	1.570730	0.000291
 2237.54318	1.570800	0.000291
 2238.76388	1.570870	0.000290
 2239.98458	1.570930	0.000290
 2241.20528	1.571000	0.000289
 2242.42598	1.571070	0.000288
 2243.64668	1.571140	0.000288
 2244.86738	1.571210	0.000287
 2246.08808	1.571280	0.000287
 2247.30878	1.571350	0.000286
 2248.52948	1.571420	0.000286
 2249.75018	1.571480	0.000285
 2250.97087	1.571550	0.000285
 2252.19157	1.571620	0.000284
 2253.41227	1.571690	0.000284
 2254.63297	1.571760	0.000283
 2255.85367	1.571820	0.000283
 2257.07437	1.571890	0.000282
 2258.29507	1.571960	0.000282
 2259.51577	1.572030	0.000281
 2260.73647	1.572090	0.000280
 2261.95717	1.572160	0.000280
 2263.17787	1.572230	0.000279
 2264.39857	1.572290	0.000279
 2265.61927	1.572360	0.000278
 2266.83997	1.572430	0.000278
 2268.06067	1.572490	0.000277
 2269.28137	1.572560	0.000277
 2270.50207	1.572630	0.000276
 2271.72277	1.572690	0.000276
 2272.94347	1.572760	0.000275
 2274.16417	1.572820	0.000275
 2275.38487	1.572890	0.000274
 2276.60557	1.572950	0.000274
 2277.82627	1.573020	0.000273
 2279.04697	1.573080	0.000273
 2280.26767	1.573150	0.000272
 2281.48837	1.573210	0.000272
 2282.70907	1.573280	0.000271
 2283.92977	1.573340	0.000271
 2285.15047	1.573410	0.000270
 2286.37117	1.573470	0.000270
 2287.59187	1.573540	0.000269
 2288.81257	1.573600	0.000269
 2290.03327	1.573670	0.000268
 2291.25397	1.573730	0.000268
 2292.47467	1.573790	0.000267
 2293.69537	1.573860	0.000267
 2294.91607	1.573920	0.000266
 2296.13677	1.573990	0.000266
 2297.35747	1.574050	0.000265
 2298.57817	1.574110	0.000265
 2299.79887	1.574180	0.000264
 2301.01957	1.574240	0.000264
 2302.24027	1.574300	0.000263
 2303.46097	1.574360	0.000263
 2304.68167	1.574430	0.000263
 2305.90237	1.574490	0.000262
 2307.12307	1.574550	0.000262
 2308.34377	1.574610	0.000261
 2309.56447	1.574680	0.000261
 2310.78517	1.574740	0.000260
 2312.00587	1.574800	0.000260
 2313.22657	1.574860	0.000259
 2314.44727	1.574930	0.000259
 2315.66797	1.574990	0.000258
 2316.88867	1.575050	0.000258
 2318.10937	1.575110	0.000257
 2319.33007	1.575170	0.000257
 2320.55077	1.575230	0.000256
 2321.77147	1.575290	0.000256
 2322.99217	1.575360	0.000255
 2324.21287	1.575420	0.000255
 2325.43357	1.575480	0.000255
 2326.65427	1.575540	0.000254
 2327.87497	1.575600	0.000254
 2329.09567	1.575660	0.000253
 2330.31637	1.575720	0.000253
 2331.53707	1.575780	0.000252
 2332.75777	1.575840	0.000252
 2333.97847	1.575900	0.000251
 2335.19917	1.575960	0.000251
 2336.41987	1.576020	0.000251
 2337.64057	1.576080	0.000250
 2338.86127	1.576140	0.000250
 2340.08197	1.576200	0.000249
 2341.30267	1.576260	0.000249
 2342.52337	1.576320	0.000248
 2343.74407	1.576380	0.000248
 2344.96477	1.576440	0.000247
 2346.18547	1.576500	0.000247
 2347.40617	1.576550	0.000247
 2348.62687	1.576610	0.000246
 2349.84757	1.576670	0.000246
 2351.06826	1.576730	0.000245
 2352.28896	1.576790	0.000245
 2353.50966	1.576850	0.000244
 2354.73036	1.576910	0.000244
 2355.95106	1.576960	0.000243
 2357.17176	1.577020	0.000243
 2358.39246	1.577080	0.000243
 2359.61316	1.577140	0.000242
 2360.83386	1.577200	0.000242
 2362.05456	1.577250	0.000241
 2363.27526	1.577310	0.000241
 2364.49596	1.577370	0.000240
 2365.71666	1.577430	0.000240
 2366.93736	1.577480	0.000240
 2368.15806	1.577540	0.000239
 2369.37876	1.577600	0.000239
 2370.59946	1.577650	0.000238
 2371.82016	1.577710	0.000238
 2373.04086	1.577770	0.000238
 2374.26156	1.577820	0.000237
 2375.48226	1.577880	0.000237
 2376.70296	1.577940	0.000236
 2377.92366	1.577990	0.000236
 2379.14436	1.578050	0.000235
 2380.36506	1.578110	0.000235
 2381.58576	1.578160	0.000235
 2382.80646	1.578220	0.000234
 2384.02716	1.578270	0.000234
 2385.24786	1.578330	0.000233
 2386.46856	1.578390	0.000233
 2387.68926	1.578440	0.000233
 2388.90996	1.578500	0.000232
 2390.13066	1.578550	0.000232
 2391.35136	1.578610	0.000231
 2392.57206	1.578660	0.000231
 2393.79276	1.578720	0.000231
 2395.01346	1.578770	0.000230
 2396.23416	1.578830	0.000230
 2397.45486	1.578880	0.000229
 2398.67556	1.578940	0.000229
 2399.89626	1.578990	0.000229
 2401.11696	1.579050	0.000228
 2402.33766	1.579100	0.000228
 2403.55836	1.579160	0.000227
 2404.77906	1.579210	0.000227
 2405.99976	1.579260	0.000227
 2407.22046	1.579320	0.000226
 2408.44116	1.579370	0.000226
 2409.66186	1.579430	0.000226
 2410.88256	1.579480	0.000225
 2412.10326	1.579530	0.000225
 2413.32396	1.579590	0.000224
 2414.54466	1.579640	0.000224
 2415.76536	1.579690	0.000224
 2416.98606	1.579750	0.000223
 2418.20676	1.579800	0.000223
 2419.42746	1.579850	0.000222
 2420.64816	1.579910	0.000222
 2421.86886	1.579960	0.000222
 2423.08956	1.580010	0.000221
 2424.31026	1.580070	0.000221
 2425.53096	1.580120	0.000221
 2426.75166	1.580170	0.000220
 2427.97236	1.580220	0.000220
 2429.19306	1.580280	0.000219
 2430.41376	1.580330	0.000219
 2431.63446	1.580380	0.000219
 2432.85516	1.580430	0.000218
 2434.07586	1.580490	0.000218
 2435.29656	1.580540	0.000218
 2436.51726	1.580590	0.000217
 2437.73796	1.580640	0.000217
 2438.95866	1.580690	0.000217
 2440.17936	1.580740	0.000216
 2441.40006	1.580800	0.000216
 2442.62076	1.580850	0.000215
 2443.84146	1.580900	0.000215
 2445.06216	1.580950	0.000215
 2446.28286	1.581000	0.000214
 2447.50356	1.581050	0.000214
 2448.72426	1.581100	0.000214
 2449.94496	1.581150	0.000213
 2451.16565	1.581210	0.000213
 2452.38635	1.581260	0.000213
 2453.60705	1.581310	0.000212
 2454.82775	1.581360	0.000212
 2456.04845	1.581410	0.000211
 2457.26915	1.581460	0.000211
 2458.48985	1.581510	0.000211
 2459.71055	1.581560	0.000210
 2460.93125	1.581610	0.000210
 2462.15195	1.581660	0.000210
 2463.37265	1.581710	0.000209
 2464.59335	1.581760	0.000209
 2465.81405	1.581810	0.000209
 2467.03475	1.581860	0.000208
 2468.25545	1.581910	0.000208
 2469.47615	1.581960	0.000208
 2470.69685	1.582010	0.000207
 2471.91755	1.582060	0.000207
 2473.13825	1.582110	0.000207
 2474.35895	1.582160	0.000206
 2475.57965	1.582200	0.000206
 2476.80035	1.582250	0.000206
 2478.02105	1.582300	0.000205
 2479.24175	1.582350	0.000205
 2480.46245	1.582400	0.000205
 2481.68315	1.582450	0.000204
 2482.90385	1.582500	0.000204
 2484.12455	1.582550	0.000204
 2485.34525	1.582590	0.000203
 2486.56595	1.582640	0.000203
 2487.78665	1.582690	0.000203
 2489.00735	1.582740	0.000202
 2490.22805	1.582790	0.000202
 2491.44875	1.582840	0.000202
 2492.66945	1.582880	0.000201
 2493.89015	1.582930	0.000201
 2495.11085	1.582980	0.000201
 2496.33155	1.583030	0.000200
 2497.55225	1.583080	0.000200
 2498.77295	1.583120	0.000200
 2499.99365	1.583170	0.000199
 2501.21435	1.583220	0.000199
 2502.43505	1.583270	0.000199
 2503.65575	1.583310	0.000198
 2504.87645	1.583360	0.000198
 2506.09715	1.583410	0.000198
 2507.31785	1.583450	0.000197
 2508.53855	1.583500	0.000197
 2509.75925	1.583550	0.000197
 2510.97995	1.583600	0.000196
 2512.20065	1.583640	0.000196
 2513.42135	1.583690	0.000196
 2514.64205	1.583740	0.000195
 2515.86275	1.583780	0.000195
 2517.08345	1.583830	0.000195
 2518.30415	1.583880	0.000194
 2519.52485	1.583920	0.000194
 2520.74555	1.583970	0.000194
 2521.96625	1.584010	0.000194
 2523.18695	1.584060	0.000193
 2524.40765	1.584110	0.000193
 2525.62835	1.584150	0.000193
 2526.84905	1.584200	0.000192
 2528.06975	1.584240	0.000192
 2529.29045	1.584290	0.000192
 2530.51115	1.584340	0.000191
 2531.73185	1.584380	0.000191
 2532.95255	1.584430	0.000191
 2534.17325	1.584470	0.000190
 2535.39395	1.584520	0.000190
 2536.61465	1.584560	0.000190
 2537.83535	1.584610	0.000190
 2539.05605	1.584650	0.000189
 2540.27675	1.584700	0.000189
 2541.49745	1.584740	0.000189
 2542.71815	1.584790	0.000188
 2543.93885	1.584830	0.000188
 2545.15955	1.584880	0.000188
 2546.38025	1.584920	0.000187
 2547.60095	1.584970	0.000187
 2548.82165	1.585010	0.000187
 2550.04235	1.585060	0.000187
 2551.26304	1.585100	0.000186
 2552.48374	1.585150	0.000186
 2553.70444	1.585190	0.000186
 2554.92514	1.585230	0.000185
 2556.14584	1.585280	0.000185
 2557.36654	1.585320	0.000185
 2558.58724	1.585370	0.000184
 2559.80794	1.585410	0.000184
 2561.02864	1.585450	0.000184
 2562.24934	1.585500	0.000184
 2563.47004	1.585540	0.000183
 2564.69074	1.585580	0.000183
 2565.91144	1.585630	0.000183
 2567.13214	1.585670	0.000182
 2568.35284	1.585720	0.000182
 2569.57354	1.585760	0.000182
 2570.79424	1.585800	0.000182
 2572.01494	1.585850	0.000181
 2573.23564	1.585890	0.000181
 2574.45634	1.585930	0.000181
 2575.67704	1.585970	0.000180
 2576.89774	1.586020	0.000180
 2578.11844	1.586060	0.000180
 2579.33914	1.586100	0.000180
 2580.55984	1.586150	0.000179
 2581.78054	1.586190	0.000179
 2583.00124	1.586230	0.000179
 2584.22194	1.586270	0.000178
 2585.44264	1.586320	0.000178
 2586.66334	1.586360	0.000178
 2587.88404	1.586400	0.000178
 2589.10474	1.586440	0.000177
 2590.32544	1.586490	0.000177
 2591.54614	1.586530	0.000177
 2592.76684	1.586570	0.000176
 2593.98754	1.586610	0.000176
 2595.20824	1.586650	0.000176
 2596.42894	1.586700	0.000176
 2597.64964	1.586740	0.000175
 2598.87034	1.586780	0.000175
 2600.09104	1.586820	0.000175
 2601.31174	1.586860	0.000175
 2602.53244	1.586900	0.000174
 2603.75314	1.586950	0.000174
 2604.97384	1.586990	0.000174
 2606.19454	1.587030	0.000173
 2607.41524	1.587070	0.000173
 2608.63594	1.587110	0.000173
 2609.85664	1.587150	0.000173
 2611.07734	1.587190	0.000172
 2612.29804	1.587240	0.000172
 2613.51874	1.587280	0.000172
 2614.73944	1.587320	0.000172
 2615.96014	1.587360	0.000171
 2617.18084	1.587400	0.000171
 2618.40154	1.587440	0.000171
 2619.62224	1.587480	0.000171
 2620.84294	1.587520	0.000170
 2622.06364	1.587560	0.000170
 2623.28434	1.587600	0.000170
 2624.50504	1.587640	0.000170
 2625.72574	1.587680	0.000169
 2626.94644	1.587720	0.000169
 2628.16714	1.587760	0.000169
 2629.38784	1.587800	0.000168
 2630.60854	1.587840	0.000168
 2631.82924	1.587880	0.000168
 2633.04994	1.587920	0.000168
 2634.27064	1.587960	0.000167
 2635.49134	1.588000	0.000167
 2636.71204	1.588040	0.000167
 2637.93274	1.588080	0.000167
 2639.15344	1.588120	0.000166
 2640.37414	1.588160	0.000166
 2641.59484	1.588200	0.000166
 2642.81554	1.588240	0.000166
 2644.03624	1.588280	0.000165
 2645.25694	1.588320	0.000165
 2646.47764	1.588360	0.000165
 2647.69834	1.588400	0.000165
 2648.91904	1.588440	0.000164
 2650.13974	1.588480	0.000164
 2651.36043	1.588520	0.000164
 2652.58113	1.588560	0.000164
 2653.80183	1.588590	0.000163
 2655.02253	1.588630	0.000163
 2656.24323	1.588670	0.000163
 2657.46393	1.588710	0.000163
 2658.68463	1.588750	0.000162
 2659.90533	1.588790	0.000162
 2661.12603	1.588830	0.000162
 2662.34673	1.588870	0.000162
 2663.56743	1.588900	0.000161
 2664.78813	1.588940	0.000161
 2666.00883	1.588980	0.000161
 2667.22953	1.589020	0.000161
 2668.45023	1.589060	0.000160
 2669.67093	1.589100	0.000160
 2670.89163	1.589130	0.000160
 2672.11233	1.589170	0.000160
 2673.33303	1.589210	0.000160
 2674.55373	1.589250	0.000159
 2675.77443	1.589290	0.000159
 2676.99513	1.589320	0.000159
 2678.21583	1.589360	0.000159
 2679.43653	1.589400	0.000158
 2680.65723	1.589440	0.000158
 2681.87793	1.589470	0.000158
 2683.09863	1.589510	0.000158
 2684.31933	1.589550	0.000157
 2685.54003	1.589590	0.000157
 2686.76073	1.589620	0.000157
 2687.98143	1.589660	0.000157
 2689.20213	1.589700	0.000156
 2690.42283	1.589740	0.000156
 2691.64353	1.589770	0.000156
 2692.86423	1.589810	0.000156
 2694.08493	1.589850	0.000156
 2695.30563	1.589880	0.000155
 2696.52633	1.589920	0.000155
 2697.74703	1.589960	0.000155
 2698.96773	1.590000	0.000155
 2700.18843	1.590030	0.000154
 2701.40913	1.590070	0.000154
 2702.62983	1.590110	0.000154
 2703.85053	1.590140	0.000154
 2705.07123	1.590180	0.000153
 2706.29193	1.590220	0.000153
 2707.51263	1.590250	0.000153
 2708.73333	1.590290	0.000153
 2709.95403	1.590320	0.000153
 2711.17473	1.590360	0.000152
 2712.39543	1.590400	0.000152
 2713.61613	1.590430	0.000152
 2714.83683	1.590470	0.000152
 2716.05753	1.590510	0.000151
 2717.27823	1.590540	0.000151
 2718.49893	1.590580	0.000151
 2719.71963	1.590610	0.000151
 2720.94033	1.590650	0.000151
 2722.16103	1.590690	0.000150
 2723.38173	1.590720	0.000150
 2724.60243	1.590760	0.000150
 2725.82313	1.590790	0.000150
 2727.04383	1.590830	0.000149
 2728.26453	1.590860	0.000149
 2729.48523	1.590900	0.000149
 2730.70593	1.590930	0.000149
 2731.92663	1.590970	0.000149
 2733.14733	1.591010	0.000148
 2734.36803	1.591040	0.000148
 2735.58873	1.591080	0.000148
 2736.80943	1.591110	0.000148
 2738.03013	1.591150	0.000147
 2739.25083	1.591180	0.000147
 2740.47153	1.591220	0.000147
 2741.69223	1.591250	0.000147
 2742.91293	1.591290	0.000147
 2744.13363	1.591320	0.000146
 2745.35433	1.591360	0.000146
 2746.57503	1.591390	0.000146
 2747.79573	1.591430	0.000146
 2749.01643	1.591460	0.000146
 2750.23713	1.591490	0.000145
 2751.45782	1.591530	0.000145
 2752.67852	1.591560	0.000145
 2753.89922	1.591600	0.000145
 2755.11992	1.591630	0.000144
 2756.34062	1.591670	0.000144
 2757.56132	1.591700	0.000144
 2758.78202	1.591740	0.000144
 2760.00272	1.591770	0.000144
 2761.22342	1.591800	0.000143
 2762.44412	1.591840	0.000143
 2763.66482	1.591870	0.000143
 2764.88552	1.591910	0.000143
 2766.10622	1.591940	0.000143
 2767.32692	1.591970	0.000142
 2768.54762	1.592010	0.000142
 2769.76832	1.592040	0.000142
 2770.98902	1.592080	0.000142
 2772.20972	1.592110	0.000142
 2773.43042	1.592140	0.000141
 2774.65112	1.592180	0.000141
 2775.87182	1.592210	0.000141
 2777.09252	1.592240	0.000141
 2778.31322	1.592280	0.000141
 2779.53392	1.592310	0.000140
 2780.75462	1.592340	0.000140
 2781.97532	1.592380	0.000140
 2783.19602	1.592410	0.000140
 2784.41672	1.592440	0.000140
 2785.63742	1.592480	0.000139
 2786.85812	1.592510	0.000139
 2788.07882	1.592540	0.000139
 2789.29952	1.592580	0.000139
 2790.52022	1.592610	0.000139
 2791.74092	1.592640	0.000138
 2792.96162	1.592680	0.000138
 2794.18232	1.592710	0.000138
 2795.40302	1.592740	0.000138
 2796.62372	1.592770	0.000138
 2797.84442	1.592810	0.000137
 2799.06512	1.592840	0.000137
 2800.28582	1.592870	0.000137
 2801.50652	1.592900	0.000137
 2802.72722	1.592940	0.000137
 2803.94792	1.592970	0.000136
 2805.16862	1.593000	0.000136
 2806.38932	1.593030	0.000136
 2807.61002	1.593070	0.000136
 2808.83072	1.593100	0.000136
 2810.05142	1.593130	0.000135
 2811.27212	1.593160	0.000135
 2812.49282	1.593200	0.000135
 2813.71352	1.593230	0.000135
 2814.93422	1.593260	0.000135
 2816.15492	1.593290	0.000134
 2817.37562	1.593320	0.000134
 2818.59632	1.593360	0.000134
 2819.81702	1.593390	0.000134
 2821.03772	1.593420	0.000134
 2822.25842	1.593450	0.000134
 2823.47912	1.593480	0.000133
 2824.69982	1.593510	0.000133
 2825.92052	1.593550	0.000133
 2827.14122	1.593580	0.000133
 2828.36192	1.593610	0.000133
 2829.58262	1.593640	0.000132
 2830.80332	1.593670	0.000132
 2832.02402	1.593700	0.000132
 2833.24472	1.593740	0.000132
 2834.46542	1.593770	0.000132
 2835.68612	1.593800	0.000131
 2836.90682	1.593830	0.000131
 2838.12752	1.593860	0.000131
 2839.34822	1.593890	0.000131
 2840.56892	1.593920	0.000131
 2841.78962	1.593950	0.000131
 2843.01032	1.593990	0.000130
 2844.23102	1.594020	0.000130
 2845.45172	1.594050	0.000130
 2846.67242	1.594080	0.000130
 2847.89312	1.594110	0.000130
 2849.11382	1.594140	0.000129
 2850.33452	1.594170	0.000129
 2851.55521	1.594200	0.000129
 2852.77591	1.594230	0.000129
 2853.99661	1.594260	0.000129
 2855.21731	1.594290	0.000129
 2856.43801	1.594320	0.000128
 2857.65871	1.594350	0.000128
 2858.87941	1.594390	0.000128
 2860.10011	1.594420	0.000128
 2861.32081	1.594450	0.000128
 2862.54151	1.594480	0.000128
 2863.76221	1.594510	0.000127
 2864.98291	1.594540	0.000127
 2866.20361	1.594570	0.000127
 2867.42431	1.594600	0.000127
 2868.64501	1.594630	0.000127
 2869.86571	1.594660	0.000126
 2871.08641	1.594690	0.000126
 2872.30711	1.594720	0.000126
 2873.52781	1.594750	0.000126
 2874.74851	1.594780	0.000126
 2875.96921	1.594810	0.000126
 2877.18991	1.594840	0.000125
 2878.41061	1.594870	0.000125
 2879.63131	1.594900	0.000125
 2880.85201	1.594930	0.000125
 2882.07271	1.594960	0.000125
 2883.29341	1.594990	0.000125
 2884.51411	1.595020	0.000124
 2885.73481	1.595050	0.000124
 2886.95551	1.595070	0.000124
 2888.17621	1.595100	0.000124
 2889.39691	1.595130	0.000124
 2890.61761	1.595160	0.000124
 2891.83831	1.595190	0.000123
 2893.05901	1.595220	0.000123
 2894.27971	1.595250	0.000123
 2895.50041	1.595280	0.000123
 2896.72111	1.595310	0.000123
 2897.94181	1.595340	0.000123
 2899.16251	1.595370	0.000122
 2900.38321	1.595400	0.000122
 2901.60391	1.595430	0.000122
 2902.82461	1.595460	0.000122
 2904.04531	1.595480	0.000122
 2905.26601	1.595510	0.000122
 2906.48671	1.595540	0.000121
 2907.70741	1.595570	0.000121
 2908.92811	1.595600	0.000121
 2910.14881	1.595630	0.000121
 2911.36951	1.595660	0.000121
 2912.59021	1.595690	0.000121
 2913.81091	1.595710	0.000120
 2915.03161	1.595740	0.000120
 2916.25231	1.595770	0.000120
 2917.47301	1.595800	0.000120
 2918.69371	1.595830	0.000120
 2919.91441	1.595860	0.000120
 2921.13511	1.595890	0.000119
 2922.35581	1.595910	0.000119
 2923.57651	1.595940	0.000119
 2924.79721	1.595970	0.000119
 2926.01791	1.596000	0.000119
 2927.23861	1.596030	0.000119
 2928.45931	1.596060	0.000118
 2929.68001	1.596080	0.000118
 2930.90071	1.596110	0.000118
 2932.12141	1.596140	0.000118
 2933.34211	1.596170	0.000118
 2934.56281	1.596200	0.000118
 2935.78351	1.596220	0.000117
 2937.00421	1.596250	0.000117
 2938.22491	1.596280	0.000117
 2939.44561	1.596310	0.000117
 2940.66631	1.596340	0.000117
 2941.88701	1.596360	0.000117
 2943.10771	1.596390	0.000117
 2944.32841	1.596420	0.000116
 2945.54911	1.596450	0.000116
 2946.76981	1.596470	0.000116
 2947.99051	1.596500	0.000116
 2949.21121	1.596530	0.000116
 2950.43191	1.596560	0.000116
 2951.65260	1.596580	0.000115
 2952.87330	1.596610	0.000115
 2954.09400	1.596640	0.000115
 2955.31470	1.596670	0.000115
 2956.53540	1.596690	0.000115
 2957.75610	1.596720	0.000115
 2958.97680	1.596750	0.000114
 2960.19750	1.596780	0.000114
 2961.41820	1.596800	0.000114
 2962.63890	1.596830	0.000114
 2963.85960	1.596860	0.000114
 2965.08030	1.596880	0.000114
 2966.30100	1.596910	0.000114
 2967.52170	1.596940	0.000113
 2968.74240	1.596960	0.000113
 2969.96310	1.596990	0.000113
 2971.18380	1.597020	0.000113
 2972.40450	1.597050	0.000113
 2973.62520	1.597070	0.000113
 2974.84590	1.597100	0.000113
 2976.06660	1.597130	0.000112
 2977.28730	1.597150	0.000112
 2978.50800	1.597180	0.000112
 2979.72870	1.597210	0.000112
 2980.94940	1.597230	0.000112
 2982.17010	1.597260	0.000112
 2983.39080	1.597290	0.000111
 2984.61150	1.597310	0.000111
 2985.83220	1.597340	0.000111
 2987.05290	1.597360	0.000111
 2988.27360	1.597390	0.000111
 2989.49430	1.597420	0.000111
 2990.71500	1.597440	0.000111
 2991.93570	1.597470	0.000110
 2993.15640	1.597500	0.000110
 2994.37710	1.597520	0.000110
 2995.59780	1.597550	0.000110
 2996.81850	1.597580	0.000110
 2998.03920	1.597600	0.000110
 2999.25990	1.597630	0.000110
 3000.48060	1.597650	0.000109
 3001.70130	1.597680	0.000109
 3002.92200	1.597710	0.000109
 3004.14270	1.597730	0.000109
 3005.36340	1.597760	0.000109
 3006.58410	1.597780	0.000109
 3007.80480	1.597810	0.000109
 3009.02550	1.597830	0.000108
 3010.24620	1.597860	0.000108
 3011.46690	1.597890	0.000108
 3012.68760	1.597910	0.000108
 3013.90830	1.597940	0.000108
 3015.12900	1.597960	0.000108
 3016.34970	1.597990	0.000108
 3017.57040	1.598010	0.000107
 3018.79110	1.598040	0.000107
 3020.01180	1.598070	0.000107
 3021.23250	1.598090	0.000107
 3022.45320	1.598120	0.000107
 3023.67390	1.598140	0.000107
 3024.89460	1.598170	0.000107
 3026.11530	1.598190	0.000106
 3027.33600	1.598220	0.000106
 3028.55670	1.598240	0.000106
 3029.77740	1.598270	0.000106
 3030.99810	1.598290	0.000106
 3032.21880	1.598320	0.000106
 3033.43950	1.598340	0.000106
 3034.66020	1.598370	0.000106
 3035.88090	1.598390	0.000105
 3037.10160	1.598420	0.000105
 3038.32230	1.598440	0.000105
 3039.54300	1.598470	0.000105
 3040.76370	1.598490	0.000105
 3041.98440	1.598520	0.000105
 3043.20510	1.598540	0.000105
 3044.42580	1.598570	0.000104
 3045.64650	1.598590	0.000104
 3046.86720	1.598620	0.000104
 3048.08790	1.598640	0.000104
 3049.30860	1.598670	0.000104
 3050.52929	1.598690	0.000104
 3051.74999	1.598720	0.000104
 3052.97069	1.598740	0.000103
 3054.19139	1.598770	0.000103
 3055.41209	1.598790	0.000103
 3056.63279	1.598820	0.000103
 3057.85349	1.598840	0.000103
 3059.07419	1.598860	0.000103
 3060.29489	1.598890	0.000103
 3061.51559	1.598910	0.000103
 3062.73629	1.598940	0.000102
 3063.95699	1.598960	0.000102
 3065.17769	1.598990	0.000102
 3066.39839	1.599010	0.000102
 3067.61909	1.599040	0.000102
 3068.83979	1.599060	0.000102
 3070.06049	1.599080	0.000102
 3071.28119	1.599110	0.000102
 3072.50189	1.599130	0.000101
 3073.72259	1.599160	0.000101
 3074.94329	1.599180	0.000101
 3076.16399	1.599200	0.000101
 3077.38469	1.599230	0.000101
 3078.60539	1.599250	0.000101
 3079.82609	1.599280	0.000101
 3081.04679	1.599300	0.000100
 3082.26749	1.599320	0.000100
 3083.48819	1.599350	0.000100
 3084.70889	1.599370	0.000100
 3085.92959	1.599400	0.000100
 3087.15029	1.599420	0.000100
 3088.37099	1.599440	0.000100
 3089.59169	1.599470	0.000100
 3090.81239	1.599490	0.000099
 3092.03309	1.599510	0.000099
 3093.25379	1.599540	0.000099
 3094.47449	1.599560	0.000099
 3095.69519	1.599580	0.000099
 3096.91589	1.599610	0.000099
 3098.13659	1.599630	0.000099
 3099.35729	1.599650	0.000099
 3100.57799	1.599680	0.000098
 3101.79869	1.599700	0.000098
 3103.01939	1.599730	0.000098
 3104.24009	1.599750	0.000098
 3105.46079	1.599770	0.000098
 3106.68149	1.599800	0.000098
 3107.90219	1.599820	0.000098
 3109.12289	1.599840	0.000098
 3110.34359	1.599860	0.000097
 3111.56429	1.599890	0.000097
 3112.78499	1.599910	0.000097
 3114.00569	1.599930	0.000097
 3115.22639	1.599960	0.000097
 3116.44709	1.599980	0.000097
 3117.66779	1.600000	0.000097
 3118.88849	1.600030	0.000097
 3120.10919	1.600050	0.000097
 3121.32989	1.600070	0.000096
 3122.55059	1.600100	0.000096
 3123.77129	1.600120	0.000096
 3124.99199	1.600140	0.000096
 3126.21269	1.600160	0.000096
 3127.43339	1.600190	0.000096
 3128.65409	1.600210	0.000096
 3129.87479	1.600230	0.000096
 3131.09549	1.600250	0.000095
 3132.31619	1.600280	0.000095
 3133.53689	1.600300	0.000095
 3134.75759	1.600320	0.000095
 3135.97829	1.600350	0.000095
 3137.19899	1.600370	0.000095
 3138.41969	1.600390	0.000095
 3139.64039	1.600410	0.000095
 3140.86109	1.600440	0.000094
 3142.08179	1.600460	0.000094
 3143.30249	1.600480	0.000094
 3144.52319	1.600500	0.000094
 3145.74389	1.600520	0.000094
 3146.96459	1.600550	0.000094
 3148.18529	1.600570	0.000094
 3149.40599	1.600590	0.000094
 3150.62668	1.600610	0.000094
 3151.84738	1.600640	0.000093
 3153.06808	1.600660	0.000093
 3154.28878	1.600680	0.000093
 3155.50948	1.600700	0.000093
 3156.73018	1.600720	0.000093
 3157.95088	1.600750	0.000093
 3159.17158	1.600770	0.000093
 3160.39228	1.600790	0.000093
 3161.61298	1.600810	0.000092
 3162.83368	1.600840	0.000092
 3164.05438	1.600860	0.000092
 3165.27508	1.600880	0.000092
 3166.49578	1.600900	0.000092
 3167.71648	1.600920	0.000092
 3168.93718	1.600940	0.000092
 3170.15788	1.600970	0.000092
 3171.37858	1.600990	0.000092
 3172.59928	1.601010	0.000091
 3173.81998	1.601030	0.000091
 3175.04068	1.601050	0.000091
 3176.26138	1.601080	0.000091
 3177.48208	1.601100	0.000091
 3178.70278	1.601120	0.000091
 3179.92348	1.601140	0.000091
 3181.14418	1.601160	0.000091
 3182.36488	1.601180	0.000091
 3183.58558	1.601200	0.000090
 3184.80628	1.601230	0.000090
 3186.02698	1.601250	0.000090
 3187.24768	1.601270	0.000090
 3188.46838	1.601290	0.000090
 3189.68908	1.601310	0.000090
 3190.90978	1.601330	0.000090
 3192.13048	1.601350	0.000090
 3193.35118	1.601380	0.000090
 3194.57188	1.601400	0.000089
 3195.79258	1.601420	0.000089
 3197.01328	1.601440	0.000089
 3198.23398	1.601460	0.000089
 3199.45468	1.601480	0.000089
 3200.67538	1.601500	0.000089
 3201.89608	1.601520	0.000089
 3203.11678	1.601550	0.000089
 3204.33748	1.601570	0.000089
 3205.55818	1.601590	0.000088
 3206.77888	1.601610	0.000088
 3207.99958	1.601630	0.000088
 3209.22028	1.601650	0.000088
 3210.44098	1.601670	0.000088
 3211.66168	1.601690	0.000088
 3212.88238	1.601710	0.000088
 3214.10308	1.601730	0.000088
 3215.32378	1.601760	0.000088
 3216.54448	1.601780	0.000088
 3217.76518	1.601800	0.000087
 3218.98588	1.601820	0.000087
 3220.20658	1.601840	0.000087
 3221.42728	1.601860	0.000087
 3222.64798	1.601880	0.000087
 3223.86868	1.601900	0.000087
 3225.08938	1.601920	0.000087
 3226.31008	1.601940	0.000087
 3227.53078	1.601960	0.000087
 3228.75148	1.601980	0.000086
 3229.97218	1.602000	0.000086
 3231.19288	1.602020	0.000086
 3232.41358	1.602040	0.000086
 3233.63428	1.602060	0.000086
 3234.85498	1.602090	0.000086
 3236.07568	1.602110	0.000086
 3237.29638	1.602130	0.000086
 3238.51708	1.602150	0.000086
 3239.73778	1.602170	0.000086
 3240.95848	1.602190	0.000085
 3242.17918	1.602210	0.000085
 3243.39988	1.602230	0.000085
 3244.62058	1.602250	0.000085
 3245.84128	1.602270	0.000085
 3247.06198	1.602290	0.000085
 3248.28268	1.602310	0.000085
 3249.50338	1.602330	0.000085
 3250.72407	1.602350	0.000085
 3251.94477	1.602370	0.000085
 3253.16547	1.602390	0.000084
 3254.38617	1.602410	0.000084
 3255.60687	1.602430	0.000084
 3256.82757	1.602450	0.000084
 3258.04827	1.602470	0.000084
 3259.26897	1.602490	0.000084
 3260.48967	1.602510	0.000084
 3261.71037	1.602530	0.000084
 3262.93107	1.602550	0.000084
 3264.15177	1.602570	0.000084
 3265.37247	1.602590	0.000083
 3266.59317	1.602610	0.000083
 3267.81387	1.602630	0.000083
 3269.03457	1.602650	0.000083
 3270.25527	1.602670	0.000083
 3271.47597	1.602690	0.000083
 3272.69667	1.602710	0.000083
 3273.91737	1.602730	0.000083
 3275.13807	1.602750	0.000083
 3276.35877	1.602770	0.000083
 3277.57947	1.602790	0.000082
 3278.80017	1.602810	0.000082
 3280.02087	1.602820	0.000082
 3281.24157	1.602840	0.000082
 3282.46227	1.602860	0.000082
 3283.68297	1.602880	0.000082
 3284.90367	1.602900	0.000082
 3286.12437	1.602920	0.000082
 3287.34507	1.602940	0.000082
 3288.56577	1.602960	0.000082
 3289.78647	1.602980	0.000081
 3291.00717	1.603000	0.000081
 3292.22787	1.603020	0.000081
 3293.44857	1.603040	0.000081
 3294.66927	1.603060	0.000081
 3295.88997	1.603080	0.000081
 3297.11067	1.603100	0.000081
 3298.33137	1.603120	0.000081
 3299.55207	1.603130	0.000081
 3300.77277	1.603150	0.000081
 3301.99347	1.603170	0.000081
 3303.21417	1.603190	0.000080
 3304.43487	1.603210	0.000080
 3305.65557	1.603230	0.000080
 3306.87627	1.603250	0.000080
 3308.09697	1.603270	0.000080
 3309.31767	1.603290	0.000080
 3310.53837	1.603310	0.000080
 3311.75907	1.603330	0.000080
 3312.97977	1.603340	0.000080
 3314.20047	1.603360	0.000080
 3315.42117	1.603380	0.000079
 3316.64187	1.603400	0.000079
 3317.86257	1.603420	0.000079
 3319.08327	1.603440	0.000079
 3320.30397	1.603460	0.000079
 3321.52467	1.603480	0.000079
 3322.74537	1.603490	0.000079
 3323.96607	1.603510	0.000079
 3325.18677	1.603530	0.000079
 3326.40747	1.603550	0.000079
 3327.62817	1.603570	0.000079
 3328.84887	1.603590	0.000078
 3330.06957	1.603610	0.000078
 3331.29027	1.603630	0.000078
 3332.51097	1.603640	0.000078
 3333.73167	1.603660	0.000078
 3334.95237	1.603680	0.000078
 3336.17307	1.603700	0.000078
 3337.39377	1.603720	0.000078
 3338.61447	1.603740	0.000078
 3339.83517	1.603760	0.000078
 3341.05587	1.603770	0.000078
 3342.27657	1.603790	0.000077
 3343.49727	1.603810	0.000077
 3344.71797	1.603830	0.000077
 3345.93867	1.603850	0.000077
 3347.15937	1.603870	0.000077
 3348.38007	1.603880	0.000077
 3349.60077	1.603900	0.000077
 3350.82146	1.603920	0.000077
 3352.04216	1.603940	0.000077
 3353.26286	1.603960	0.000077
 3354.48356	1.603980	0.000077
 3355.70426	1.603990	0.000076
 3356.92496	1.604010	0.000076
 3358.14566	1.604030	0.000076
 3359.36636	1.604050	0.000076
 3360.58706	1.604070	0.000076
 3361.80776	1.604080	0.000076
 3363.02846	1.604100	0.000076
 3364.24916	1.604120	0.000076
 3365.46986	1.604140	0.000076
 3366.69056	1.604160	0.000076
 3367.91126	1.604170	0.000076
 3369.13196	1.604190	0.000076
 3370.35266	1.604210	0.000075
 3371.57336	1.604230	0.000075
 3372.79406	1.604250	0.000075
 3374.01476	1.604260	0.000075
 3375.23546	1.604280	0.000075
 3376.45616	1.604300	0.000075
 3377.67686	1.604320	0.000075
 3378.89756	1.604330	0.000075
 3380.11826	1.604350	0.000075
 3381.33896	1.604370	0.000075
 3382.55966	1.604390	0.000075
 3383.78036	1.604410	0.000074
 3385.00106	1.604420	0.000074
 3386.22176	1.604440	0.000074
 3387.44246	1.604460	0.000074
 3388.66316	1.604480	0.000074
 3389.88386	1.604490	0.000074
 3391.10456	1.604510	0.000074
 3392.32526	1.604530	0.000074
 3393.54596	1.604550	0.000074
 3394.76666	1.604560	0.000074
 3395.98736	1.604580	0.000074
 3397.20806	1.604600	0.000074
 3398.42876	1.604620	0.000073
 3399.64946	1.604630	0.000073
 3400.87016	1.604650	0.000073
 3402.09086	1.604670	0.000073
 3403.31156	1.604690	0.000073
 3404.53226	1.604700	0.000073
 3405.75296	1.604720	0.000073
 3406.97366	1.604740	0.000073
 3408.19436	1.604760	0.000073
 3409.41506	1.604770	0.000073
 3410.63576	1.604790	0.000073
 3411.85646	1.604810	0.000073
 3413.07716	1.604830	0.000072
 3414.29786	1.604840	0.000072
 3415.51856	1.604860	0.000072
 3416.73926	1.604880	0.000072
 3417.95996	1.604890	0.000072
 3419.18066	1.604910	0.000072
 3420.40136	1.604930	0.000072
 3421.62206	1.604950	0.000072
 3422.84276	1.604960	0.000072
 3424.06346	1.604980	0.000072
 3425.28416	1.605000	0.000072
 3426.50486	1.605010	0.000072
 3427.72556	1.605030	0.000072
 3428.94626	1.605050	0.000071
 3430.16696	1.605060	0.000071
 3431.38766	1.605080	0.000071
 3432.60836	1.605100	0.000071
 3433.82906	1.605110	0.000071
 3435.04976	1.605130	0.000071
 3436.27046	1.605150	0.000071
 3437.49116	1.605170	0.000071
 3438.71186	1.605180	0.000071
 3439.93256	1.605200	0.000071
 3441.15326	1.605220	0.000071
 3442.37396	1.605230	0.000071
 3443.59466	1.605250	0.000070
 3444.81536	1.605270	0.000070
 3446.03606	1.605280	0.000070
 3447.25676	1.605300	0.000070
 3448.47746	1.605320	0.000070
 3449.69816	1.605330	0.000070
 3450.91885	1.605350	0.000070
 3452.13955	1.605370	0.000070
 3453.36025	1.605380	0.000070
 3454.58095	1.605400	0.000070
 3455.80165	1.605420	0.000070
 3457.02235	1.605430	0.000070
 3458.24305	1.605450	0.000070
 3459.46375	1.605470	0.000069
 3460.68445	1.605480	0.000069
 3461.90515	1.605500	0.000069
 3463.12585	1.605510	0.000069
 3464.34655	1.605530	0.000069
 3465.56725	1.605550	0.000069
 3466.78795	1.605560	0.000069
 3468.00865	1.605580	0.000069
 3469.22935	1.605600	0.000069
 3470.45005	1.605610	0.000069
 3471.67075	1.605630	0.000069
 3472.89145	1.605650	0.000069
 3474.11215	1.605660	0.000069
 3475.33285	1.605680	0.000068
 3476.55355	1.605690	0.000068
 3477.77425	1.605710	0.000068
 3478.99495	1.605730	0.000068
 3480.21565	1.605740	0.000068
 3481.43635	1.605760	0.000068
 3482.65705	1.605780	0.000068
 3483.87775	1.605790	0.000068
 3485.09845	1.605810	0.000068
 3486.31915	1.605820	0.000068
 3487.53985	1.605840	0.000068
 3488.76055	1.605860	0.000068
 3489.98125	1.605870	0.000068
 3491.20195	1.605890	0.000067
 3492.42265	1.605900	0.000067
 3493.64335	1.605920	0.000067
 3494.86405	1.605940	0.000067
 3496.08475	1.605950	0.000067
 3497.30545	1.605970	0.000067
 3498.52615	1.605980	0.000067
 3499.74685	1.606000	0.000067
 3500.96755	1.606020	0.000067
 3502.18825	1.606030	0.000067
 3503.40895	1.606050	0.000067
 3504.62965	1.606060	0.000067
 3505.85035	1.606080	0.000067
 3507.07105	1.606100	0.000067
 3508.29175	1.606110	0.000066
 3509.51245	1.606130	0.000066
 3510.73315	1.606140	0.000066
 3511.95385	1.606160	0.000066
 3513.17455	1.606170	0.000066
 3514.39525	1.606190	0.000066
 3515.61595	1.606210	0.000066
 3516.83665	1.606220	0.000066
 3518.05735	1.606240	0.000066
 3519.27805	1.606250	0.000066
 3520.49875	1.606270	0.000066
 3521.71945	1.606280	0.000066
 3522.94015	1.606300	0.000066
 3524.16085	1.606310	0.000065
 3525.38155	1.606330	0.000065
 3526.60225	1.606350	0.000065
 3527.82295	1.606360	0.000065
 3529.04365	1.606380	0.000065
 3530.26435	1.606390	0.000065
 3531.48505	1.606410	0.000065
 3532.70575	1.606420	0.000065
 3533.92645	1.606440	0.000065
 3535.14715	1.606450	0.000065
 3536.36785	1.606470	0.000065
 3537.58855	1.606480	0.000065
 3538.80925	1.606500	0.000065
 3540.02995	1.606520	0.000065
 3541.25065	1.606530	0.000065
 3542.47135	1.606550	0.000064
 3543.69205	1.606560	0.000064
 3544.91275	1.606580	0.000064
 3546.13345	1.606590	0.000064
 3547.35415	1.606610	0.000064
 3548.57485	1.606620	0.000064
 3549.79555	1.606640	0.000064
 3551.01624	1.606650	0.000064
 3552.23694	1.606670	0.000064
 3553.45764	1.606680	0.000064
 3554.67834	1.606700	0.000064
 3555.89904	1.606710	0.000064
 3557.11974	1.606730	0.000064
 3558.34044	1.606740	0.000064
 3559.56114	1.606760	0.000063
 3560.78184	1.606770	0.000063
 3562.00254	1.606790	0.000063
 3563.22324	1.606800	0.000063
 3564.44394	1.606820	0.000063
 3565.66464	1.606830	0.000063
 3566.88534	1.606850	0.000063
 3568.10604	1.606860	0.000063
 3569.32674	1.606880	0.000063
 3570.54744	1.606890	0.000063
 3571.76814	1.606910	0.000063
 3572.98884	1.606920	0.000063
 3574.20954	1.606940	0.000063
 3575.43024	1.606950	0.000063
 3576.65094	1.606970	0.000063
 3577.87164	1.606980	0.000062
 3579.09234	1.607000	0.000062
 3580.31304	1.607010	0.000062
 3581.53374	1.607030	0.000062
 3582.75444	1.607040	0.000062
 3583.97514	1.607060	0.000062
 3585.19584	1.607070	0.000062
 3586.41654	1.607090	0.000062
 3587.63724	1.607100	0.000062
 3588.85794	1.607120	0.000062
 3590.07864	1.607130	0.000062
 3591.29934	1.607150	0.000062
 3592.52004	1.607160	0.000062
 3593.74074	1.607170	0.000062
 3594.96144	1.607190	0.000062
 3596.18214	1.607200	0.000061
 3597.40284	1.607220	0.000061
 3598.62354	1.607230	0.000061
 3599.84424	1.607250	0.000061
 3601.06494	1.607260	0.000061
 3602.28564	1.607280	0.000061
 3603.50634	1.607290	0.000061
 3604.72704	1.607310	0.000061
 3605.94774	1.607320	0.000061
 3607.16844	1.607330	0.000061
 3608.38914	1.607350	0.000061
 3609.60984	1.607360	0.000061
 3610.83054	1.607380	0.000061
 3612.05124	1.607390	0.000061
 3613.27194	1.607410	0.000061
 3614.49264	1.607420	0.000060
 3615.71334	1.607440	0.000060
 3616.93404	1.607450	0.000060
 3618.15474	1.607460	0.000060
 3619.37544	1.607480	0.000060
 3620.59614	1.607490	0.000060
 3621.81684	1.607510	0.000060
 3623.03754	1.607520	0.000060
 3624.25824	1.607540	0.000060
 3625.47894	1.607550	0.000060
 3626.69964	1.607560	0.000060
 3627.92034	1.607580	0.000060
 3629.14104	1.607590	0.000060
 3630.36174	1.607610	0.000060
 3631.58244	1.607620	0.000060
 3632.80314	1.607630	0.000060
 3634.02384	1.607650	0.000059
 3635.24454	1.607660	0.000059
 3636.46524	1.607680	0.000059
 3637.68594	1.607690	0.000059
 3638.90664	1.607700	0.000059
 3640.12734	1.607720	0.000059
 3641.34804	1.607730	0.000059
 3642.56874	1.607750	0.000059
 3643.78944	1.607760	0.000059
 3645.01014	1.607780	0.000059
 3646.23084	1.607790	0.000059
 3647.45154	1.607800	0.000059
 3648.67224	1.607820	0.000059
 3649.89294	1.607830	0.000059
 3651.11363	1.607840	0.000059
 3652.33433	1.607860	0.000059
 3653.55503	1.607870	0.000058
 3654.77573	1.607890	0.000058
 3655.99643	1.607900	0.000058
 3657.21713	1.607910	0.000058
 3658.43783	1.607930	0.000058
 3659.65853	1.607940	0.000058
 3660.87923	1.607960	0.000058
 3662.09993	1.607970	0.000058
 3663.32063	1.607980	0.000058
 3664.54133	1.608000	0.000058
 3665.76203	1.608010	0.000058
 3666.98273	1.608020	0.000058
 3668.20343	1.608040	0.000058
 3669.42413	1.608050	0.000058
 3670.64483	1.608070	0.000058
 3671.86553	1.608080	0.000058
 3673.08623	1.608090	0.000057
 3674.30693	1.608110	0.000057
 3675.52763	1.608120	0.000057
 3676.74833	1.608130	0.000057
 3677.96903	1.608150	0.000057
 3679.18973	1.608160	0.000057
 3680.41043	1.608170	0.000057
 3681.63113	1.608190	0.000057
 3682.85183	1.608200	0.000057
 3684.07253	1.608220	0.000057
 3685.29323	1.608230	0.000057
 3686.51393	1.608240	0.000057
 3687.73463	1.608260	0.000057
 3688.95533	1.608270	0.000057
 3690.17603	1.608280	0.000057
 3691.39673	1.608300	0.000057
 3692.61743	1.608310	0.000057
 3693.83813	1.608320	0.000056
 3695.05883	1.608340	0.000056
 3696.27953	1.608350	0.000056
 3697.50023	1.608360	0.000056
 3698.72093	1.608380	0.000056
 3699.94163	1.608390	0.000056
 3701.16233	1.608400	0.000056
 3702.38303	1.608420	0.000056
 3703.60373	1.608430	0.000056
 3704.82443	1.608440	0.000056
 3706.04513	1.608460	0.000056
 3707.26583	1.608470	0.000056
 3708.48653	1.608480	0.000056
 3709.70723	1.608500	0.000056
 3710.92793	1.608510	0.000056
 3712.14863	1.608520	0.000056
 3713.36933	1.608540	0.000056
 3714.59003	1.608550	0.000055
 3715.81073	1.608560	0.000055
 3717.03143	1.608580	0.000055
 3718.25213	1.608590	0.000055
 3719.47283	1.608600	0.000055
 3720.69353	1.608610	0.000055
 3721.91423	1.608630	0.000055
 3723.13493	1.608640	0.000055
 3724.35563	1.608650	0.000055
 3725.57633	1.608670	0.000055
 3726.79703	1.608680	0.000055
 3728.01773	1.608690	0.000055
 3729.23843	1.608710	0.000055
 3730.45913	1.608720	0.000055
 3731.67983	1.608730	0.000055
 3732.90053	1.608740	0.000055
 3734.12123	1.608760	0.000055
 3735.34193	1.608770	0.000055
 3736.56263	1.608780	0.000054
 3737.78333	1.608800	0.000054
 3739.00403	1.608810	0.000054
 3740.22473	1.608820	0.000054
 3741.44543	1.608840	0.000054
 3742.66613	1.608850	0.000054
 3743.88683	1.608860	0.000054
 3745.10753	1.608870	0.000054
 3746.32823	1.608890	0.000054
 3747.54893	1.608900	0.000054
 3748.76963	1.608910	0.000054
 3749.99033	1.608930	0.000054
 3751.21102	1.608940	0.000054
 3752.43172	1.608950	0.000054
 3753.65242	1.608960	0.000054
 3754.87312	1.608980	0.000054
 3756.09382	1.608990	0.000054
 3757.31452	1.609000	0.000054
 3758.53522	1.609010	0.000053
 3759.75592	1.609030	0.000053
 3760.97662	1.609040	0.000053
 3762.19732	1.609050	0.000053
 3763.41802	1.609070	0.000053
 3764.63872	1.609080	0.000053
 3765.85942	1.609090	0.000053
 3767.08012	1.609100	0.000053
 3768.30082	1.609120	0.000053
 3769.52152	1.609130	0.000053
 3770.74222	1.609140	0.000053
 3771.96292	1.609150	0.000053
 3773.18362	1.609170	0.000053
 3774.40432	1.609180	0.000053
 3775.62502	1.609190	0.000053
 3776.84572	1.609200	0.000053
 3778.06642	1.609220	0.000053
 3779.28712	1.609230	0.000053
 3780.50782	1.609240	0.000053
 3781.72852	1.609250	0.000052
 3782.94922	1.609270	0.000052
 3784.16992	1.609280	0.000052
 3785.39062	1.609290	0.000052
 3786.61132	1.609300	0.000052
 3787.83202	1.609320	0.000052
 3789.05272	1.609330	0.000052
 3790.27342	1.609340	0.000052
 3791.49412	1.609350	0.000052
 3792.71482	1.609360	0.000052
 3793.93552	1.609380	0.000052
 3795.15622	1.609390	0.000052
 3796.37692	1.609400	0.000052
 3797.59762	1.609410	0.000052
 3798.81832	1.609430	0.000052
 3800.03902	1.609440	0.000052
 3801.25972	1.609450	0.000052
 3802.48042	1.609460	0.000052
 3803.70112	1.609480	0.000052
 3804.92182	1.609490	0.000051
 3806.14252	1.609500	0.000051
 3807.36322	1.609510	0.000051
 3808.58392	1.609520	0.000051
 3809.80462	1.609540	0.000051
 3811.02532	1.609550	0.000051
 3812.24602	1.609560	0.000051
 3813.46672	1.609570	0.000051
 3814.68742	1.609580	0.000051
 3815.90812	1.609600	0.000051
 3817.12882	1.609610	0.000051
 3818.34952	1.609620	0.000051
 3819.57022	1.609630	0.000051
 3820.79092	1.609650	0.000051
 3822.01162	1.609660	0.000051
 3823.23232	1.609670	0.000051
 3824.45302	1.609680	0.000051
 3825.67372	1.609690	0.000051
 3826.89442	1.609710	0.000051
 3828.11512	1.609720	0.000050
 3829.33582	1.609730	0.000050
 3830.55652	1.609740	0.000050
 3831.77722	1.609750	0.000050
 3832.99792	1.609770	0.000050
 3834.21862	1.609780	0.000050
 3835.43932	1.609790	0.000050
 3836.66002	1.609800	0.000050
 3837.88072	1.609810	0.000050
 3839.10142	1.609820	0.000050
 3840.32212	1.609840	0.000050
 3841.54282	1.609850	0.000050
 3842.76352	1.609860	0.000050
 3843.98422	1.609870	0.000050
 3845.20492	1.609880	0.000050
 3846.42562	1.609900	0.000050
 3847.64632	1.609910	0.000050
 3848.86702	1.609920	0.000050
 3850.08772	1.609930	0.000050
 3851.30841	1.609940	0.000050
 3852.52911	1.609950	0.000050
 3853.74981	1.609970	0.000049
 3854.97051	1.609980	0.000049
 3856.19121	1.609990	0.000049
 3857.41191	1.610000	0.000049
 3858.63261	1.610010	0.000049
 3859.85331	1.610020	0.000049
 3861.07401	1.610040	0.000049
 3862.29471	1.610050	0.000049
 3863.51541	1.610060	0.000049
 3864.73611	1.610070	0.000049
 3865.95681	1.610080	0.000049
 3867.17751	1.610090	0.000049
 3868.39821	1.610110	0.000049
 3869.61891	1.610120	0.000049
 3870.83961	1.610130	0.000049
 3872.06031	1.610140	0.000049
 3873.28101	1.610150	0.000049
 3874.50171	1.610160	0.000049
 3875.72241	1.610180	0.000049
 3876.94311	1.610190	0.000049
 3878.16381	1.610200	0.000048
 3879.38451	1.610210	0.000048
 3880.60521	1.610220	0.000048
 3881.82591	1.610230	0.000048
 3883.04661	1.610240	0.000048
 3884.26731	1.610260	0.000048
 3885.48801	1.610270	0.000048
 3886.70871	1.610280	0.000048
 3887.92941	1.610290	0.000048
 3889.15011	1.610300	0.000048
 3890.37081	1.610310	0.000048
 3891.59151	1.610320	0.000048
 3892.81221	1.610340	0.000048
 3894.03291	1.610350	0.000048
 3895.25361	1.610360	0.000048
 3896.47431	1.610370	0.000048
 3897.69501	1.610380	0.000048
 3898.91571	1.610390	0.000048
 3900.13641	1.610400	0.000048
 3901.35711	1.610420	0.000048
 3902.57781	1.610430	0.000048
 3903.79851	1.610440	0.000047
 3905.01921	1.610450	0.000047
 3906.23991	1.610460	0.000047
 3907.46061	1.610470	0.000047
 3908.68131	1.610480	0.000047
 3909.90201	1.610490	0.000047
 3911.12271	1.610510	0.000047
 3912.34341	1.610520	0.000047
 3913.56411	1.610530	0.000047
 3914.78481	1.610540	0.000047
 3916.00551	1.610550	0.000047
 3917.22621	1.610560	0.000047
 3918.44691	1.610570	0.000047
 3919.66761	1.610580	0.000047
 3920.88831	1.610590	0.000047
 3922.10901	1.610610	0.000047
 3923.32971	1.610620	0.000047
 3924.55041	1.610630	0.000047
 3925.77111	1.610640	0.000047
 3926.99181	1.610650	0.000047
 3928.21251	1.610660	0.000047
 3929.43321	1.610670	0.000047
 3930.65391	1.610680	0.000046
 3931.87461	1.610690	0.000046
 3933.09531	1.610710	0.000046
 3934.31601	1.610720	0.000046
 3935.53671	1.610730	0.000046
 3936.75741	1.610740	0.000046
 3937.97811	1.610750	0.000046
 3939.19881	1.610760	0.000046
 3940.41951	1.610770	0.000046
 3941.64021	1.610780	0.000046
 3942.86091	1.610790	0.000046
 3944.08161	1.610800	0.000046
 3945.30231	1.610810	0.000046
 3946.52301	1.610830	0.000046
 3947.74371	1.610840	0.000046
 3948.96441	1.610850	0.000046
 3950.18511	1.610860	0.000046
 3951.40580	1.610870	0.000046
 3952.62650	1.610880	0.000046
 3953.84720	1.610890	0.000046
 3955.06790	1.610900	0.000046
 3956.28860	1.610910	0.000046
 3957.50930	1.610920	0.000046
 3958.73000	1.610930	0.000045
 3959.95070	1.610940	0.000045
 3961.17140	1.610960	0.000045
 3962.39210	1.610970	0.000045
 3963.61280	1.610980	0.000045
 3964.83350	1.610990	0.000045
 3966.05420	1.611000	0.000045
 3967.27490	1.611010	0.000045
 3968.49560	1.611020	0.000045
 3969.71630	1.611030	0.000045
 3970.93700	1.611040	0.000045
 3972.15770	1.611050	0.000045
 3973.37840	1.611060	0.000045
 3974.59910	1.611070	0.000045
 3975.81980	1.611080	0.000045
 3977.04050	1.611090	0.000045
 3978.26120	1.611110	0.000045
 3979.48190	1.611120	0.000045
 3980.70260	1.611130	0.000045
 3981.92330	1.611140	0.000045
 3983.14400	1.611150	0.000045
 3984.36470	1.611160	0.000045
 3985.58540	1.611170	0.000045
 3986.80610	1.611180	0.000044
 3988.02680	1.611190	0.000044
 3989.24750	1.611200	0.000044
 3990.46820	1.611210	0.000044
 3991.68890	1.611220	0.000044
 3992.90960	1.611230	0.000044
 3994.13030	1.611240	0.000044
 3995.35100	1.611250	0.000044
 3996.57170	1.611260	0.000044
 3997.79240	1.611270	0.000044
 3999.01310	1.611280	0.000044
 4000.23380	1.611300	0.000044
 4001.45450	1.611310	0.000044
 4002.67520	1.611320	0.000044
 4003.89590	1.611330	0.000044
 4005.11660	1.611340	0.000044
 4006.33730	1.611350	0.000044
 4007.55800	1.611360	0.000044
 4008.77870	1.611370	0.000044
 4009.99940	1.611380	0.000044
 4011.22010	1.611390	0.000044
 4012.44080	1.611400	0.000044
 4013.66150	1.611410	0.000044
 4014.88220	1.611420	0.000044
 4016.10290	1.611430	0.000043
 4017.32360	1.611440	0.000043
 4018.54430	1.611450	0.000043
 4019.76500	1.611460	0.000043
 4020.98570	1.611470	0.000043
 4022.20640	1.611480	0.000043
 4023.42710	1.611490	0.000043
 4024.64780	1.611500	0.000043
 4025.86850	1.611510	0.000043
 4027.08920	1.611520	0.000043
 4028.30990	1.611530	0.000043
 4029.53060	1.611540	0.000043
 4030.75130	1.611550	0.000043
 4031.97200	1.611560	0.000043
 4033.19270	1.611570	0.000043
 4034.41340	1.611580	0.000043
 4035.63410	1.611590	0.000043
 4036.85480	1.611600	0.000043
 4038.07550	1.611610	0.000043
 4039.29620	1.611620	0.000043
 4040.51690	1.611630	0.000043
 4041.73760	1.611640	0.000043
 4042.95830	1.611650	0.000043
 4044.17900	1.611660	0.000043
 4045.39970	1.611670	0.000043
 4046.62040	1.611680	0.000042
 4047.84110	1.611690	0.000042
 4049.06180	1.611700	0.000042
 4050.28249	1.611710	0.000042
 4051.50319	1.611730	0.000042
 4052.72389	1.611740	0.000042
 4053.94459	1.611750	0.000042
 4055.16529	1.611760	0.000042
 4056.38599	1.611770	0.000042
 4057.60669	1.611780	0.000042
 4058.82739	1.611780	0.000042
 4060.04809	1.611790	0.000042
 4061.26879	1.611800	0.000042
 4062.48949	1.611810	0.000042
 4063.71019	1.611820	0.000042
 4064.93089	1.611830	0.000042
 4066.15159	1.611840	0.000042
 4067.37229	1.611850	0.000042
 4068.59299	1.611860	0.000042
 4069.81369	1.611870	0.000042
 4071.03439	1.611880	0.000042
 4072.25509	1.611890	0.000042
 4073.47579	1.611900	0.000042
 4074.69649	1.611910	0.000042
 4075.91719	1.611920	0.000042
 4077.13789	1.611930	0.000041
 4078.35859	1.611940	0.000041
 4079.57929	1.611950	0.000041
 4080.79999	1.611960	0.000041
 4082.02069	1.611970	0.000041
 4083.24139	1.611980	0.000041
 4084.46209	1.611990	0.000041
 4085.68279	1.612000	0.000041
 4086.90349	1.612010	0.000041
 4088.12419	1.612020	0.000041
 4089.34489	1.612030	0.000041
 4090.56559	1.612040	0.000041
 4091.78629	1.612050	0.000041
 4093.00699	1.612060	0.000041
 4094.22769	1.612070	0.000041
 4095.44839	1.612080	0.000041
 4096.66909	1.612090	0.000041
 4097.88979	1.612100	0.000041
 4099.11049	1.612110	0.000041
 4100.33119	1.612120	0.000041
 4101.55189	1.612130	0.000041
 4102.77259	1.612140	0.000041
 4103.99329	1.612150	0.000041
 4105.21399	1.612160	0.000041
 4106.43469	1.612170	0.000041
 4107.65539	1.612180	0.000041
 4108.87609	1.612190	0.000040
 4110.09679	1.612200	0.000040
 4111.31749	1.612210	0.000040
 4112.53819	1.612220	0.000040
 4113.75889	1.612220	0.000040
 4114.97959	1.612230	0.000040
 4116.20029	1.612240	0.000040
 4117.42099	1.612250	0.000040
 4118.64169	1.612260	0.000040
 4119.86239	1.612270	0.000040
 4121.08309	1.612280	0.000040
 4122.30379	1.612290	0.000040
 4123.52449	1.612300	0.000040
 4124.74519	1.612310	0.000040
 4125.96589	1.612320	0.000040
 4127.18659	1.612330	0.000040
 4128.40729	1.612340	0.000040
 4129.62799	1.612350	0.000040
 4130.84869	1.612360	0.000040
 4132.06939	1.612370	0.000040
 4133.29009	1.612380	0.000040
 4134.51079	1.612390	0.000040
 4135.73149	1.612400	0.000040
 4136.95219	1.612400	0.000040
 4138.17289	1.612410	0.000040
 4139.39359	1.612420	0.000040
 4140.61429	1.612430	0.000040
 4141.83499	1.612440	0.000039
 4143.05569	1.612450	0.000039
 4144.27639	1.612460	0.000039
 4145.49709	1.612470	0.000039
 4146.71779	1.612480	0.000039
 4147.93849	1.612490	0.000039
 4149.15919	1.612500	0.000039
 4150.37988	1.612510	0.000039
 4151.60058	1.612520	0.000039
 4152.82128	1.612530	0.000039
 4154.04198	1.612540	0.000039
 4155.26268	1.612540	0.000039
 4156.48338	1.612550	0.000039
 4157.70408	1.612560	0.000039
 4158.92478	1.612570	0.000039
 4160.14548	1.612580	0.000039
 4161.36618	1.612590	0.000039
 4162.58688	1.612600	0.000039
 4163.80758	1.612610	0.000039
 4165.02828	1.612620	0.000039
 4166.24898	1.612630	0.000039
 4167.46968	1.612640	0.000039
 4168.69038	1.612650	0.000039
 4169.91108	1.612660	0.000039
 4171.13178	1.612660	0.000039
 4172.35248	1.612670	0.000039
 4173.57318	1.612680	0.000039
 4174.79388	1.612690	0.000039
 4176.01458	1.612700	0.000039
 4177.23528	1.612710	0.000038
 4178.45598	1.612720	0.000038
 4179.67668	1.612730	0.000038
 4180.89738	1.612740	0.000038
 4182.11808	1.612750	0.000038
 4183.33878	1.612760	0.000038
 4184.55948	1.612770	0.000038
 4185.78018	1.612770	0.000038
 4187.00088	1.612780	0.000038
 4188.22158	1.612790	0.000038
 4189.44228	1.612800	0.000038
 4190.66298	1.612810	0.000038
 4191.88368	1.612820	0.000038
 4193.10438	1.612830	0.000038
 4194.32508	1.612840	0.000038
 4195.54578	1.612850	0.000038
 4196.76648	1.612860	0.000038
 4197.98718	1.612860	0.000038
 4199.20788	1.612870	0.000038
 4200.42858	1.612880	0.000038
 4201.64928	1.612890	0.000038
 4202.86998	1.612900	0.000038
 4204.09068	1.612910	0.000038
 4205.31138	1.612920	0.000038
 4206.53208	1.612930	0.000038
 4207.75278	1.612940	0.000038
 4208.97348	1.612940	0.000038
 4210.19418	1.612950	0.000038
 4211.41488	1.612960	0.000038
 4212.63558	1.612970	0.000037
 4213.85628	1.612980	0.000037
 4215.07698	1.612990	0.000037
 4216.29768	1.613000	0.000037
 4217.51838	1.613010	0.000037
 4218.73908	1.613020	0.000037
 4219.95978	1.613020	0.000037
 4221.18048	1.613030	0.000037
 4222.40118	1.613040	0.000037
 4223.62188	1.613050	0.000037
 4224.84258	1.613060	0.000037
 4226.06328	1.613070	0.000037
 4227.28398	1.613080	0.000037
 4228.50468	1.613090	0.000037
 4229.72538	1.613100	0.000037
 4230.94608	1.613100	0.000037
 4232.16678	1.613110	0.000037
 4233.38748	1.613120	0.000037
 4234.60818	1.613130	0.000037
 4235.82888	1.613140	0.000037
 4237.04958	1.613150	0.000037
 4238.27028	1.613160	0.000037
 4239.49098	1.613160	0.000037
 4240.71168	1.613170	0.000037
 4241.93238	1.613180	0.000037
 4243.15308	1.613190	0.000037
 4244.37378	1.613200	0.000037
 4245.59448	1.613210	0.000037
 4246.81518	1.613220	0.000037
 4248.03588	1.613230	0.000037
 4249.25658	1.613230	0.000036
 4250.47727	1.613240	0.000036
 4251.69797	1.613250	0.000036
 4252.91867	1.613260	0.000036
 4254.13937	1.613270	0.000036
 4255.36007	1.613280	0.000036
 4256.58077	1.613290	0.000036
 4257.80147	1.613290	0.000036
 4259.02217	1.613300	0.000036
 4260.24287	1.613310	0.000036
 4261.46357	1.613320	0.000036
 4262.68427	1.613330	0.000036
 4263.90497	1.613340	0.000036
 4265.12567	1.613350	0.000036
 4266.34637	1.613350	0.000036
 4267.56707	1.613360	0.000036
 4268.78777	1.613370	0.000036
 4270.00847	1.613380	0.000036
 4271.22917	1.613390	0.000036
 4272.44987	1.613400	0.000036
 4273.67057	1.613410	0.000036
 4274.89127	1.613410	0.000036
 4276.11197	1.613420	0.000036
 4277.33267	1.613430	0.000036
 4278.55337	1.613440	0.000036
 4279.77407	1.613450	0.000036
 4280.99477	1.613460	0.000036
 4282.21547	1.613470	0.000036
 4283.43617	1.613470	0.000036
 4284.65687	1.613480	0.000036
 4285.87757	1.613490	0.000036
 4287.09827	1.613500	0.000035
 4288.31897	1.613510	0.000035
 4289.53967	1.613520	0.000035
 4290.76037	1.613520	0.000035
 4291.98107	1.613530	0.000035
 4293.20177	1.613540	0.000035
 4294.42247	1.613550	0.000035
 4295.64317	1.613560	0.000035
 4296.86387	1.613570	0.000035
 4298.08457	1.613570	0.000035
 4299.30527	1.613580	0.000035
 4300.52597	1.613590	0.000035
 4301.74667	1.613600	0.000035
 4302.96737	1.613610	0.000035
 4304.18807	1.613620	0.000035
 4305.40877	1.613620	0.000035
 4306.62947	1.613630	0.000035
 4307.85017	1.613640	0.000035
 4309.07087	1.613650	0.000035
 4310.29157	1.613660	0.000035
 4311.51227	1.613670	0.000035
 4312.73297	1.613670	0.000035
 4313.95367	1.613680	0.000035
 4315.17437	1.613690	0.000035
 4316.39507	1.613700	0.000035
 4317.61577	1.613710	0.000035
 4318.83647	1.613720	0.000035
 4320.05717	1.613720	0.000035
 4321.27787	1.613730	0.000035
 4322.49857	1.613740	0.000035
 4323.71927	1.613750	0.000035
 4324.93997	1.613760	0.000035
 4326.16067	1.613760	0.000035
 4327.38137	1.613770	0.000034
 4328.60207	1.613780	0.000034
 4329.82277	1.613790	0.000034
 4331.04347	1.613800	0.000034
 4332.26417	1.613810	0.000034
 4333.48487	1.613810	0.000034
 4334.70557	1.613820	0.000034
 4335.92627	1.613830	0.000034
 4337.14697	1.613840	0.000034
 4338.36767	1.613850	0.000034
 4339.58837	1.613850	0.000034
 4340.80907	1.613860	0.000034
 4342.02977	1.613870	0.000034
 4343.25047	1.613880	0.000034
 4344.47117	1.613890	0.000034
 4345.69187	1.613890	0.000034
 4346.91257	1.613900	0.000034
 4348.13327	1.613910	0.000034
 4349.35397	1.613920	0.000034
 4350.57466	1.613930	0.000034
 4351.79536	1.613930	0.000034
 4353.01606	1.613940	0.000034
 4354.23676	1.613950	0.000034
 4355.45746	1.613960	0.000034
 4356.67816	1.613970	0.000034
 4357.89886	1.613970	0.000034
 4359.11956	1.613980	0.000034
 4360.34026	1.613990	0.000034
 4361.56096	1.614000	0.000034
 4362.78166	1.614010	0.000034
 4364.00236	1.614010	0.000034
 4365.22306	1.614020	0.000034
 4366.44376	1.614030	0.000034
 4367.66446	1.614040	0.000034
 4368.88516	1.614050	0.000033
 4370.10586	1.614050	0.000033
 4371.32656	1.614060	0.000033
 4372.54726	1.614070	0.000033
 4373.76796	1.614080	0.000033
 4374.98866	1.614090	0.000033
 4376.20936	1.614090	0.000033
 4377.43006	1.614100	0.000033
 4378.65076	1.614110	0.000033
 4379.87146	1.614120	0.000033
 4381.09216	1.614130	0.000033
 4382.31286	1.614130	0.000033
 4383.53356	1.614140	0.000033
 4384.75426	1.614150	0.000033
 4385.97496	1.614160	0.000033
 4387.19566	1.614160	0.000033
 4388.41636	1.614170	0.000033
 4389.63706	1.614180	0.000033
 4390.85776	1.614190	0.000033
 4392.07846	1.614200	0.000033
 4393.29916	1.614200	0.000033
 4394.51986	1.614210	0.000033
 4395.74056	1.614220	0.000033
 4396.96126	1.614230	0.000033
 4398.18196	1.614230	0.000033
 4399.40266	1.614240	0.000033
 4400.62336	1.614250	0.000033
 4401.84406	1.614260	0.000033
 4403.06476	1.614270	0.000033
 4404.28546	1.614270	0.000033
 4405.50616	1.614280	0.000033
 4406.72686	1.614290	0.000033
 4407.94756	1.614300	0.000033
 4409.16826	1.614300	0.000033
 4410.38896	1.614310	0.000033
 4411.60966	1.614320	0.000032
 4412.83036	1.614330	0.000032
 4414.05106	1.614340	0.000032
 4415.27176	1.614340	0.000032
 4416.49246	1.614350	0.000032
 4417.71316	1.614360	0.000032
 4418.93386	1.614370	0.000032
 4420.15456	1.614370	0.000032
 4421.37526	1.614380	0.000032
 4422.59596	1.614390	0.000032
 4423.81666	1.614400	0.000032
 4425.03736	1.614400	0.000032
 4426.25806	1.614410	0.000032
 4427.47876	1.614420	0.000032
 4428.69946	1.614430	0.000032
 4429.92016	1.614430	0.000032
 4431.14086	1.614440	0.000032
 4432.36156	1.614450	0.000032
 4433.58226	1.614460	0.000032
 4434.80296	1.614460	0.000032
 4436.02366	1.614470	0.000032
 4437.24436	1.614480	0.000032
 4438.46506	1.614490	0.000032
 4439.68576	1.614500	0.000032
 4440.90646	1.614500	0.000032
 4442.12716	1.614510	0.000032
 4443.34786	1.614520	0.000032
 4444.56856	1.614530	0.000032
 4445.78926	1.614530	0.000032
 4447.00996	1.614540	0.000032
 4448.23066	1.614550	0.000032
 4449.45136	1.614560	0.000032
 4450.67205	1.614560	0.000032
 4451.89275	1.614570	0.000032
 4453.11345	1.614580	0.000032
 4454.33415	1.614590	0.000032
 4455.55485	1.614590	0.000031
 4456.77555	1.614600	0.000031
 4457.99625	1.614610	0.000031
 4459.21695	1.614620	0.000031
 4460.43765	1.614620	0.000031
 4461.65835	1.614630	0.000031
 4462.87905	1.614640	0.000031
 4464.09975	1.614640	0.000031
 4465.32045	1.614650	0.000031
 4466.54115	1.614660	0.000031
 4467.76185	1.614670	0.000031
 4468.98255	1.614670	0.000031
 4470.20325	1.614680	0.000031
 4471.42395	1.614690	0.000031
 4472.64465	1.614700	0.000031
 4473.86535	1.614700	0.000031
 4475.08605	1.614710	0.000031
 4476.30675	1.614720	0.000031
 4477.52745	1.614730	0.000031
 4478.74815	1.614730	0.000031
 4479.96885	1.614740	0.000031
 4481.18955	1.614750	0.000031
 4482.41025	1.614760	0.000031
 4483.63095	1.614760	0.000031
 4484.85165	1.614770	0.000031
 4486.07235	1.614780	0.000031
 4487.29305	1.614780	0.000031
 4488.51375	1.614790	0.000031
 4489.73445	1.614800	0.000031
 4490.95515	1.614810	0.000031
 4492.17585	1.614810	0.000031
 4493.39655	1.614820	0.000031
 4494.61725	1.614830	0.000031
 4495.83795	1.614840	0.000031
 4497.05865	1.614840	0.000031
 4498.27935	1.614850	0.000031
 4499.50005	1.614860	0.000031
 4500.72075	1.614860	0.000031
 4501.94145	1.614870	0.000031
 4503.16215	1.614880	0.000030
 4504.38285	1.614890	0.000030
 4505.60355	1.614890	0.000030
 4506.82425	1.614900	0.000030
 4508.04495	1.614910	0.000030
 4509.26565	1.614920	0.000030
 4510.48635	1.614920	0.000030
 4511.70705	1.614930	0.000030
 4512.92775	1.614940	0.000030
 4514.14845	1.614940	0.000030
 4515.36915	1.614950	0.000030
 4516.58985	1.614960	0.000030
 4517.81055	1.614970	0.000030
 4519.03125	1.614970	0.000030
 4520.25195	1.614980	0.000030
 4521.47265	1.614990	0.000030
 4522.69335	1.614990	0.000030
 4523.91405	1.615000	0.000030
 4525.13475	1.615010	0.000030
 4526.35545	1.615020	0.000030
 4527.57615	1.615020	0.000030
 4528.79685	1.615030	0.000030
 4530.01755	1.615040	0.000030
 4531.23825	1.615040	0.000030
 4532.45895	1.615050	0.000030
 4533.67965	1.615060	0.000030
 4534.90035	1.615060	0.000030
 4536.12105	1.615070	0.000030
 4537.34175	1.615080	0.000030
 4538.56245	1.615090	0.000030
 4539.78315	1.615090	0.000030
 4541.00385	1.615100	0.000030
 4542.22455	1.615110	0.000030
 4543.44525	1.615110	0.000030
 4544.66595	1.615120	0.000030
 4545.88665	1.615130	0.000030
 4547.10735	1.615140	0.000030
 4548.32805	1.615140	0.000030
 4549.54875	1.615150	0.000030
 4550.76944	1.615160	0.000030
 4551.99014	1.615160	0.000029
 4553.21084	1.615170	0.000029
 4554.43154	1.615180	0.000029
 4555.65224	1.615180	0.000029
 4556.87294	1.615190	0.000029
 4558.09364	1.615200	0.000029
 4559.31434	1.615210	0.000029
 4560.53504	1.615210	0.000029
 4561.75574	1.615220	0.000029
 4562.97644	1.615230	0.000029
 4564.19714	1.615230	0.000029
 4565.41784	1.615240	0.000029
 4566.63854	1.615250	0.000029
 4567.85924	1.615250	0.000029
 4569.07994	1.615260	0.000029
 4570.30064	1.615270	0.000029
 4571.52134	1.615270	0.000029
 4572.74204	1.615280	0.000029
 4573.96274	1.615290	0.000029
 4575.18344	1.615290	0.000029
 4576.40414	1.615300	0.000029
 4577.62484	1.615310	0.000029
 4578.84554	1.615320	0.000029
 4580.06624	1.615320	0.000029
 4581.28694	1.615330	0.000029
 4582.50764	1.615340	0.000029
 4583.72834	1.615340	0.000029
 4584.94904	1.615350	0.000029
 4586.16974	1.615360	0.000029
 4587.39044	1.615360	0.000029
 4588.61114	1.615370	0.000029
 4589.83184	1.615380	0.000029
 4591.05254	1.615380	0.000029
 4592.27324	1.615390	0.000029
 4593.49394	1.615400	0.000029
 4594.71464	1.615400	0.000029
 4595.93534	1.615410	0.000029
 4597.15604	1.615420	0.000029
 4598.37674	1.615420	0.000029
 4599.59744	1.615430	0.000029
 4600.81814	1.615440	0.000029
 4602.03884	1.615440	0.000029
 4603.25954	1.615450	0.000028
 4604.48024	1.615460	0.000028
 4605.70094	1.615460	0.000028
 4606.92164	1.615470	0.000028
 4608.14234	1.615480	0.000028
 4609.36304	1.615490	0.000028
 4610.58374	1.615490	0.000028
 4611.80444	1.615500	0.000028
 4613.02514	1.615510	0.000028
 4614.24584	1.615510	0.000028
 4615.46654	1.615520	0.000028
 4616.68724	1.615530	0.000028
 4617.90794	1.615530	0.000028
 4619.12864	1.615540	0.000028
 4620.34934	1.615550	0.000028
 4621.57004	1.615550	0.000028
 4622.79074	1.615560	0.000028
 4624.01144	1.615570	0.000028
 4625.23214	1.615570	0.000028
 4626.45284	1.615580	0.000028
 4627.67354	1.615590	0.000028
 4628.89424	1.615590	0.000028
 4630.11494	1.615600	0.000028
 4631.33564	1.615610	0.000028
 4632.55634	1.615610	0.000028
 4633.77704	1.615620	0.000028
 4634.99774	1.615620	0.000028
 4636.21844	1.615630	0.000028
 4637.43914	1.615640	0.000028
 4638.65984	1.615640	0.000028
 4639.88054	1.615650	0.000028
 4641.10124	1.615660	0.000028
 4642.32194	1.615660	0.000028
 4643.54264	1.615670	0.000028
 4644.76334	1.615680	0.000028
 4645.98404	1.615680	0.000028
 4647.20474	1.615690	0.000028
 4648.42544	1.615700	0.000028
 4649.64614	1.615700	0.000028
 4650.86683	1.615710	0.000028
 4652.08753	1.615720	0.000028
 4653.30823	1.615720	0.000028
 4654.52893	1.615730	0.000028
 4655.74963	1.615740	0.000028
 4656.97033	1.615740	0.000027
 4658.19103	1.615750	0.000027
 4659.41173	1.615760	0.000027
 4660.63243	1.615760	0.000027
 4661.85313	1.615770	0.000027
 4663.07383	1.615780	0.000027
 4664.29453	1.615780	0.000027
 4665.51523	1.615790	0.000027
 4666.73593	1.615790	0.000027
 4667.95663	1.615800	0.000027
 4669.17733	1.615810	0.000027
 4670.39803	1.615810	0.000027
 4671.61873	1.615820	0.000027
 4672.83943	1.615830	0.000027
 4674.06013	1.615830	0.000027
 4675.28083	1.615840	0.000027
 4676.50153	1.615850	0.000027
 4677.72223	1.615850	0.000027
 4678.94293	1.615860	0.000027
 4680.16363	1.615870	0.000027
 4681.38433	1.615870	0.000027
 4682.60503	1.615880	0.000027
 4683.82573	1.615890	0.000027
 4685.04643	1.615890	0.000027
 4686.26713	1.615900	0.000027
 4687.48783	1.615900	0.000027
 4688.70853	1.615910	0.000027
 4689.92923	1.615920	0.000027
 4691.14993	1.615920	0.000027
 4692.37063	1.615930	0.000027
 4693.59133	1.615940	0.000027
 4694.81203	1.615940	0.000027
 4696.03273	1.615950	0.000027
 4697.25343	1.615950	0.000027
 4698.47413	1.615960	0.000027
 4699.69483	1.615970	0.000027
 4700.91553	1.615970	0.000027
 4702.13623	1.615980	0.000027
 4703.35693	1.615990	0.000027
 4704.57763	1.615990	0.000027
 4705.79833	1.616000	0.000027
 4707.01903	1.616010	0.000027
 4708.23973	1.616010	0.000027
 4709.46043	1.616020	0.000027
 4710.68113	1.616020	0.000027
 4711.90183	1.616030	0.000027
 4713.12253	1.616040	0.000026
 4714.34323	1.616040	0.000026
 4715.56393	1.616050	0.000026
 4716.78463	1.616060	0.000026
 4718.00533	1.616060	0.000026
 4719.22603	1.616070	0.000026
 4720.44673	1.616070	0.000026
 4721.66743	1.616080	0.000026
 4722.88813	1.616090	0.000026
 4724.10883	1.616090	0.000026
 4725.32953	1.616100	0.000026
 4726.55023	1.616110	0.000026
 4727.77093	1.616110	0.000026
 4728.99163	1.616120	0.000026
 4730.21233	1.616120	0.000026
 4731.43303	1.616130	0.000026
 4732.65373	1.616140	0.000026
 4733.87443	1.616140	0.000026
 4735.09513	1.616150	0.000026
 4736.31583	1.616160	0.000026
 4737.53653	1.616160	0.000026
 4738.75723	1.616170	0.000026
 4739.97793	1.616170	0.000026
 4741.19863	1.616180	0.000026
 4742.41933	1.616190	0.000026
 4743.64003	1.616190	0.000026
 4744.86073	1.616200	0.000026
 4746.08143	1.616200	0.000026
 4747.30213	1.616210	0.000026
 4748.52283	1.616220	0.000026
 4749.74353	1.616220	0.000026
 4750.96422	1.616230	0.000026
 4752.18492	1.616240	0.000026
 4753.40562	1.616240	0.000026
 4754.62632	1.616250	0.000026
 4755.84702	1.616250	0.000026
 4757.06772	1.616260	0.000026
 4758.28842	1.616270	0.000026
 4759.50912	1.616270	0.000026
 4760.72982	1.616280	0.000026
 4761.95052	1.616280	0.000026
 4763.17122	1.616290	0.000026
 4764.39192	1.616300	0.000026
 4765.61262	1.616300	0.000026
 4766.83332	1.616310	0.000026
 4768.05402	1.616310	0.000026
 4769.27472	1.616320	0.000026
 4770.49542	1.616330	0.000026
 4771.71612	1.616330	0.000025
 4772.93682	1.616340	0.000025
 4774.15752	1.616340	0.000025
 4775.37822	1.616350	0.000025
 4776.59892	1.616360	0.000025
 4777.81962	1.616360	0.000025
 4779.04032	1.616370	0.000025
 4780.26102	1.616370	0.000025
 4781.48172	1.616380	0.000025
 4782.70242	1.616390	0.000025
 4783.92312	1.616390	0.000025
 4785.14382	1.616400	0.000025
 4786.36452	1.616400	0.000025
 4787.58522	1.616410	0.000025
 4788.80592	1.616420	0.000025
 4790.02662	1.616420	0.000025
 4791.24732	1.616430	0.000025
 4792.46802	1.616430	0.000025
 4793.68872	1.616440	0.000025
 4794.90942	1.616450	0.000025
 4796.13012	1.616450	0.000025
 4797.35082	1.616460	0.000025
 4798.57152	1.616460	0.000025
 4799.79222	1.616470	0.000025
 4801.01292	1.616480	0.000025
 4802.23362	1.616480	0.000025
 4803.45432	1.616490	0.000025
 4804.67502	1.616490	0.000025
 4805.89572	1.616500	0.000025
 4807.11642	1.616510	0.000025
 4808.33712	1.616510	0.000025
 4809.55782	1.616520	0.000025
 4810.77852	1.616520	0.000025
 4811.99922	1.616530	0.000025
 4813.21992	1.616530	0.000025
 4814.44062	1.616540	0.000025
 4815.66132	1.616550	0.000025
 4816.88202	1.616550	0.000025
 4818.10272	1.616560	0.000025
 4819.32342	1.616560	0.000025
 4820.54412	1.616570	0.000025
 4821.76482	1.616580	0.000025
 4822.98552	1.616580	0.000025
 4824.20622	1.616590	0.000025
 4825.42692	1.616590	0.000025
 4826.64762	1.616600	0.000025
 4827.86832	1.616610	0.000025
 4829.08902	1.616610	0.000025
 4830.30972	1.616620	0.000025
 4831.53042	1.616620	0.000025
 4832.75112	1.616630	0.000025
 4833.97182	1.616630	0.000024
 4835.19252	1.616640	0.000024
 4836.41322	1.616650	0.000024
 4837.63392	1.616650	0.000024
 4838.85462	1.616660	0.000024
 4840.07532	1.616660	0.000024
 4841.29602	1.616670	0.000024
 4842.51672	1.616670	0.000024
 4843.73742	1.616680	0.000024
 4844.95812	1.616690	0.000024
 4846.17882	1.616690	0.000024
 4847.39952	1.616700	0.000024
 4848.62022	1.616700	0.000024
 4849.84092	1.616710	0.000024
 4851.06161	1.616710	0.000024
 4852.28231	1.616720	0.000024
 4853.50301	1.616730	0.000024
 4854.72371	1.616730	0.000024
 4855.94441	1.616740	0.000024
 4857.16511	1.616740	0.000024
 4858.38581	1.616750	0.000024
 4859.60651	1.616760	0.000024
 4860.82721	1.616760	0.000024
 4862.04791	1.616770	0.000024
 4863.26861	1.616770	0.000024
 4864.48931	1.616780	0.000024
 4865.71001	1.616780	0.000024
 4866.93071	1.616790	0.000024
 4868.15141	1.616790	0.000024
 4869.37211	1.616800	0.000024
 4870.59281	1.616810	0.000024
 4871.81351	1.616810	0.000024
 4873.03421	1.616820	0.000024
 4874.25491	1.616820	0.000024
 4875.47561	1.616830	0.000024
 4876.69631	1.616830	0.000024
 4877.91701	1.616840	0.000024
 4879.13771	1.616850	0.000024
 4880.35841	1.616850	0.000024
 4881.57911	1.616860	0.000024
 4882.79981	1.616860	0.000024
 4884.02051	1.616870	0.000024
 4885.24121	1.616870	0.000024
 4886.46191	1.616880	0.000024
 4887.68261	1.616890	0.000024
 4888.90331	1.616890	0.000024
 4890.12401	1.616900	0.000024
 4891.34471	1.616900	0.000024
 4892.56541	1.616910	0.000024
 4893.78611	1.616910	0.000024
 4895.00681	1.616920	0.000024
 4896.22751	1.616920	0.000024
 4897.44821	1.616930	0.000024
 4898.66891	1.616940	0.000024
 4899.88961	1.616940	0.000024
 4901.11031	1.616950	0.000023
 4902.33101	1.616950	0.000023
 4903.55171	1.616960	0.000023
 4904.77241	1.616960	0.000023
 4905.99311	1.616970	0.000023
 4907.21381	1.616970	0.000023
 4908.43451	1.616980	0.000023
 4909.65521	1.616990	0.000023
 4910.87591	1.616990	0.000023
 4912.09661	1.617000	0.000023
 4913.31731	1.617000	0.000023
 4914.53801	1.617010	0.000023
 4915.75871	1.617010	0.000023
 4916.97941	1.617020	0.000023
 4918.20011	1.617020	0.000023
 4919.42081	1.617030	0.000023
 4920.64151	1.617030	0.000023
 4921.86221	1.617040	0.000023
 4923.08291	1.617050	0.000023
 4924.30361	1.617050	0.000023
 4925.52431	1.617060	0.000023
 4926.74501	1.617060	0.000023
 4927.96571	1.617070	0.000023
 4929.18641	1.617070	0.000023
 4930.40711	1.617080	0.000023
 4931.62781	1.617080	0.000023
 4932.84851	1.617090	0.000023
 4934.06921	1.617100	0.000023
 4935.28991	1.617100	0.000023
 4936.51061	1.617110	0.000023
 4937.73131	1.617110	0.000023
 4938.95201	1.617120	0.000023
 4940.17271	1.617120	0.000023
 4941.39341	1.617130	0.000023
 4942.61411	1.617130	0.000023
 4943.83481	1.617140	0.000023
 4945.05551	1.617140	0.000023
 4946.27621	1.617150	0.000023
 4947.49691	1.617150	0.000023
 4948.71761	1.617160	0.000023
 4949.93831	1.617170	0.000023
 4951.15900	1.617170	0.000023
 4952.37970	1.617180	0.000023
 4953.60040	1.617180	0.000023
 4954.82110	1.617190	0.000023
 4956.04180	1.617190	0.000023
 4957.26250	1.617200	0.000023
 4958.48320	1.617200	0.000023
 4959.70390	1.617210	0.000023
 4960.92460	1.617210	0.000023
 4962.14530	1.617220	0.000023
 4963.36600	1.617220	0.000023
 4964.58670	1.617230	0.000023
 4965.80740	1.617240	0.000023
 4967.02810	1.617240	0.000023
 4968.24880	1.617250	0.000023
 4969.46950	1.617250	0.000023
 4970.69020	1.617260	0.000023
 4971.91090	1.617260	0.000022
 4973.13160	1.617270	0.000022
 4974.35230	1.617270	0.000022
 4975.57300	1.617280	0.000022
 4976.79370	1.617280	0.000022
 4978.01440	1.617290	0.000022
 4979.23510	1.617290	0.000022
 4980.45580	1.617300	0.000022
 4981.67650	1.617300	0.000022
 4982.89720	1.617310	0.000022
 4984.11790	1.617310	0.000022
 4985.33860	1.617320	0.000022
 4986.55930	1.617330	0.000022
 4987.78000	1.617330	0.000022
 4989.00070	1.617340	0.000022
 4990.22140	1.617340	0.000022
 4991.44210	1.617350	0.000022
 4992.66280	1.617350	0.000022
 4993.88350	1.617360	0.000022
 4995.10420	1.617360	0.000022
 4996.32490	1.617370	0.000022
 4997.54560	1.617370	0.000022
 4998.76630	1.617380	0.000022
 4999.98700	1.617380	0.000022