#FORMAT = WAVN n dn k dk
#DESCRIPTION = Refractive indices of amorphous nitric acid trihydrate at 153 K from 482 to 7000 cm<sup>-1</sup>.
#SUBSTANCE= a-NAT
#SAMPLEFORM= Thin Film
#TEMPERATURE= 153 K
#CONCENTRATION=   
#DOI=10.1029/94jd02388
#REFERENCE= O. B. Toon, M. A. Tolbert, B. G. Koehler, A. M. Middlebrook, and
## J. Jordan, Infrared optical constants of H2O-ice, amorphous acid
## solutions, and nitric acid hydrates, J. Geophys. Res., 99, 25631 - 25654,
## 1994.
#CONTACT= 
#COMMENT= Derived from 6 spectroscopic measurements of thin crystaline films.
 482 1.867 0.187 1.85E-001 1.9E-002
 490 1.807 0.181 1.94E-001 1.9E-002
 521 1.786 0.179 2.15E-001 2.2E-002
 559 1.772 0.177 2.37E-001 2.4E-002
 598 1.756 0.176 2.48E-001 2.5E-002
 621 1.760 0.176 2.59E-001 2.6E-002
 636 1.749 0.175 2.77E-001 2.8E-002
 675 1.725 0.172 2.93E-001 2.9E-002
 694 1.705 0.171 3.12E-001 3.1E-002
 714 1.678 0.168 3.02E-001 3.0E-002
 752 1.652 0.165 2.91E-001 2.9E-002
 791 1.640 0.164 2.80E-001 2.8E-002
 798 1.646 0.165 2.75E-001 2.7E-002
 810 1.652 0.165 3.00E-001 3.0E-002
 822 1.613 0.161 3.16E-001 3.2E-002
 829 1.593 0.159 2.95E-001 2.9E-002
 868 1.599 0.160 2.49E-001 2.5E-002
 906 1.608 0.161 2.31E-001 2.3E-002
 926 1.618 0.162 2.27E-001 2.3E-002
 945 1.626 0.163 2.34E-001 2.3E-002
 957 1.622 0.162 2.38E-001 2.4E-002
 972 1.619 0.162 2.30E-001 2.3E-002
 984 1.626 0.163 2.24E-001 2.2E-002
 999 1.640 0.164 2.25E-001 2.2E-002
1022 1.656 0.166 2.57E-001 2.6E-002
1038 1.626 0.163 2.83E-001 2.8E-002
1049 1.599 0.160 2.59E-001 2.6E-002
1061 1.614 0.161 2.31E-001 2.3E-002
1099 1.645 0.164 2.47E-001 2.5E-002
1138 1.657 0.166 2.63E-001 2.6E-002
1176 1.669 0.167 2.88E-001 2.9E-002
1215 1.686 0.169 3.24E-001 3.2E-002
1254 1.706 0.171 4.11E-001 4.1E-002
1269 1.692 0.169 4.74E-001 4.7E-002
1292 1.605 0.161 5.58E-001 5.6E-002
1300 1.557 0.156 5.78E-001 5.8E-002
1331 1.394 0.139 5.01E-001 5.0E-002
1350 1.360 0.136 4.16E-001 4.2E-002
1369 1.400 0.140 3.46E-001 3.5E-002
1381 1.432 0.143 3.43E-001 3.4E-002
1400 1.458 0.146 3.84E-001 3.8E-002
1408 1.450 0.145 4.03E-001 4.0E-002
1431 1.389 0.139 4.42E-001 4.4E-002
1439 1.361 0.136 4.47E-001 4.5E-002
1446 1.326 0.133 4.42E-001 4.4E-002
1462 1.261 0.126 3.95E-001 4.0E-002
1485 1.236 0.124 2.80E-001 2.8E-002
1523 1.310 0.131 1.86E-001 1.9E-002
1562 1.373 0.137 1.66E-001 1.7E-002
1601 1.422 0.142 1.75E-001 1.8E-002
1639 1.439 0.144 2.10E-001 2.1E-002
1678 1.427 0.143 2.33E-001 2.3E-002
1716 1.412 0.141 2.45E-001 2.5E-002
1755 1.383 0.138 2.45E-001 2.5E-002
1793 1.363 0.136 2.27E-001 2.3E-002
1832 1.354 0.135 2.08E-001 2.1E-002
1871 1.351 0.135 1.90E-001 1.9E-002
1909 1.351 0.135 1.71E-001 1.7E-002
1948 1.356 0.136 1.55E-001 1.5E-002
1986 1.363 0.136 1.45E-001 1.4E-002
2025 1.370 0.137 1.39E-001 1.4E-002
2063 1.376 0.138 1.34E-001 1.3E-002
2102 1.382 0.138 1.30E-001 1.3E-002
2141 1.387 0.139 1.28E-001 1.3E-002
2179 1.391 0.139 1.29E-001 1.3E-002
2218 1.393 0.139 1.29E-001 1.3E-002
2256 1.393 0.139 1.28E-001 1.3E-002
2295 1.391 0.139 1.27E-001 1.3E-002
2333 1.390 0.139 1.24E-001 1.2E-002
2372 1.389 0.139 1.19E-001 1.2E-002
2411 1.392 0.139 1.14E-001 1.1E-002
2449 1.395 0.139 1.11E-001 1.1E-002
2488 1.400 0.140 1.07E-001 1.1E-002
2526 1.405 0.140 1.07E-001 1.1E-002
2565 1.410 0.141 1.10E-001 1.1E-002
2603 1.413 0.141 1.12E-001 1.1E-002
2642 1.414 0.141 1.16E-001 1.2E-002
2681 1.412 0.141 1.20E-001 1.2E-002
2719 1.411 0.141 1.21E-001 1.2E-002
2758 1.408 0.141 1.20E-001 1.2E-002
2796 1.409 0.141 1.19E-001 1.2E-002
2835 1.410 0.141 1.19E-001 1.2E-002
2873 1.413 0.141 1.19E-001 1.2E-002
2912 1.416 0.142 1.21E-001 1.2E-002
2951 1.420 0.142 1.24E-001 1.2E-002
2989 1.423 0.142 1.31E-001 1.3E-002
3028 1.427 0.143 1.41E-001 1.4E-002
3066 1.427 0.143 1.54E-001 1.5E-002
3105 1.421 0.142 1.70E-001 1.7E-002
3143 1.411 0.141 1.85E-001 1.9E-002
3182 1.395 0.139 1.99E-001 2.0E-002
3221 1.371 0.137 2.10E-001 2.1E-002
3259 1.347 0.135 2.11E-001 2.1E-002
3298 1.322 0.132 2.09E-001 2.1E-002
3336 1.296 0.130 2.01E-001 2.0E-002
3375 1.270 0.127 1.85E-001 1.9E-002
3413 1.249 0.125 1.62E-001 1.6E-002
3452 1.234 0.123 1.35E-001 1.4E-002
3491 1.227 0.123 1.05E-001 1.0E-002
3529 1.227 0.123 7.45E-002 7.5E-003
3568 1.235 0.124 4.54E-002 4.5E-003
3606 1.253 0.125 2.10E-002 2.1E-003
3645 1.274 0.127 8.43E-003 8.4E-004
3683 1.292 0.129 3.98E-003 4.0E-004
3722 1.305 0.130 2.46E-003 2.5E-004
3761 1.315 0.132 1.75E-003 1.8E-004
3799 1.323 0.132 1.31E-003 1.3E-004
3838 1.329 0.133 1.06E-003 1.1E-004
3876 1.335 0.134 1.02E-003 1.0E-004
3915 1.340 0.134 1.10E-003 1.1E-004
3953 1.345 0.134 1.14E-003 1.1E-004
3992 1.348 0.135 1.02E-003 1.0E-004
4011 1.350 0.135 0.00E+000 0.0E+000
4131 1.360 0.136 0.00E+000 0.0E+000
4285 1.370 0.137 0.00E+000 0.0E+000
4505 1.380 0.138 0.00E+000 0.0E+000
4817 1.390 0.139 0.00E+000 0.0E+000
5292 1.400 0.140 0.00E+000 0.0E+000
6098 1.410 0.141 0.00E+000 0.0E+000
7000 1.420 0.142 0.00E+000 0.0E+000