#DISTRIBUTEDBY=Aerosol Refractive Index Archive (www.atm.ox.ac.uk/project/RI/)
#DESCRIPTION=Refractive indices of Olivine from 0 to 5000 cm-1.
#SUBSTANCE=Olivine
#SAMPLEFORM=Solid
#TEMPERATURE=
#CONCENTRATION=
#REFERENCE=D. Fabian, Th. Henning, C. Jäger, H. Mutschke, J. Dorschner, O. Werhan, Astron. Astrophys. 378, 228 (2001).
#CONTACT=
#COMMENT=Optical constants in X ORIENTATION (i.e. E||x) of a natural olivine single crystal
#FORMAT=WAVN N K 
 0.00000	2.626550	0.000000
 1.22100	2.626558	0.000082
 2.44100	2.626581	0.000165
 3.66200	2.626620	0.000247
 4.88300	2.626676	0.000330
 6.10300	2.626746	0.000412
 7.32400	2.626833	0.000495
 8.54500	2.626935	0.000578
 9.76600	2.627053	0.000660
 10.98600	2.627187	0.000743
 12.20700	2.627337	0.000826
 13.42800	2.627502	0.000909
 14.64800	2.627683	0.000992
 15.86900	2.627881	0.001076
 17.09000	2.628094	0.001159
 18.31000	2.628323	0.001243
 19.53100	2.628568	0.001326
 20.75200	2.628829	0.001410
 21.97300	2.629106	0.001494
 23.19300	2.629399	0.001579
 24.41400	2.629708	0.001663
 25.63500	2.630033	0.001748
 26.85500	2.630375	0.001833
 28.07600	2.630733	0.001919
 29.29700	2.631107	0.002004
 30.51700	2.631497	0.002090
 31.73800	2.631904	0.002176
 32.95900	2.632327	0.002262
 34.18000	2.632767	0.002349
 35.40000	2.633223	0.002436
 36.62100	2.633696	0.002524
 37.84200	2.634186	0.002611
 39.06200	2.634692	0.002699
 40.28300	2.635216	0.002788
 41.50400	2.635756	0.002877
 42.72400	2.636313	0.002966
 43.94500	2.636887	0.003056
 45.16600	2.637479	0.003146
 46.38700	2.638087	0.003237
 47.60700	2.638713	0.003328
 48.82800	2.639357	0.003419
 50.04900	2.640018	0.003511
 51.26900	2.640696	0.003604
 52.49000	2.641392	0.003697
 53.71100	2.642107	0.003791
 54.93100	2.642838	0.003885
 56.15200	2.643589	0.003980
 57.37300	2.644356	0.004075
 58.59400	2.645143	0.004171
 59.81400	2.645948	0.004268
 61.03500	2.646771	0.004366
 62.25600	2.647613	0.004464
 63.47600	2.648474	0.004563
 64.69700	2.649353	0.004662
 65.91800	2.650252	0.004762
 67.13800	2.651170	0.004863
 68.35900	2.652107	0.004965
 69.58000	2.653064	0.005068
 70.80100	2.654040	0.005171
 72.02100	2.655036	0.005276
 73.24200	2.656052	0.005381
 74.46300	2.657088	0.005487
 75.68300	2.658144	0.005594
 76.90400	2.659221	0.005702
 78.12500	2.660319	0.005811
 79.34500	2.661438	0.005921
 80.56600	2.662577	0.006032
 81.78700	2.663738	0.006145
 83.00800	2.664920	0.006258
 84.22800	2.666123	0.006372
 85.44900	2.667349	0.006488
 86.67000	2.668597	0.006605
 87.89000	2.669867	0.006723
 89.11100	2.671160	0.006843
 90.33200	2.672476	0.006963
 91.55200	2.673814	0.007086
 92.77300	2.675176	0.007209
 93.99400	2.676562	0.007334
 95.21500	2.677971	0.007461
 96.43500	2.679405	0.007589
 97.65600	2.680863	0.007719
 98.87700	2.682346	0.007850
 100.09700	2.683854	0.007983
 101.31800	2.685387	0.008118
 102.53900	2.686946	0.008255
 103.75900	2.688531	0.008394
 104.98000	2.690142	0.008534
 106.20100	2.691781	0.008677
 107.42200	2.693446	0.008822
 108.64200	2.695139	0.008969
 109.86300	2.696860	0.009118
 111.08400	2.698609	0.009270
 112.30400	2.700387	0.009423
 113.52500	2.702194	0.009580
 114.74600	2.704031	0.009739
 115.96600	2.705899	0.009901
 117.18700	2.707797	0.010066
 118.40800	2.709725	0.010234
 119.62900	2.711686	0.010405
 120.84900	2.713679	0.010579
 122.07000	2.715705	0.010756
 123.29100	2.717764	0.010937
 124.51100	2.719858	0.011122
 125.73200	2.721986	0.011311
 126.95300	2.724150	0.011503
 128.17300	2.726350	0.011700
 129.39400	2.728587	0.011901
 130.61500	2.730861	0.012107
 131.83600	2.733174	0.012318
 133.05600	2.735527	0.012534
 134.27700	2.737919	0.012756
 135.49800	2.740353	0.012983
 136.71800	2.742829	0.013217
 137.93900	2.745348	0.013457
 139.16000	2.747912	0.013703
 140.38000	2.750521	0.013958
 141.60100	2.753177	0.014220
 142.82200	2.755881	0.014490
 144.04300	2.758634	0.014769
 145.26300	2.761438	0.015058
 146.48400	2.764295	0.015357
 147.70500	2.767206	0.015666
 148.92500	2.770172	0.015988
 150.14600	2.773197	0.016322
 151.36700	2.776281	0.016671
 152.58700	2.779427	0.017034
 153.80800	2.782637	0.017413
 155.02900	2.785914	0.017810
 156.25000	2.789261	0.018227
 157.47000	2.792680	0.018665
 158.69100	2.796174	0.019126
 159.91200	2.799748	0.019613
 161.13200	2.803403	0.020129
 162.35300	2.807146	0.020677
 163.57400	2.810980	0.021260
 164.79400	2.814909	0.021883
 166.01500	2.818939	0.022550
 167.23600	2.823076	0.023268
 168.45700	2.827327	0.024043
 169.67700	2.831697	0.024883
 170.89800	2.836194	0.025798
 172.11900	2.840828	0.026799
 173.33900	2.845605	0.027900
 174.56000	2.850537	0.029116
 175.78100	2.855634	0.030467
 177.00100	2.860905	0.031977
 178.22200	2.866364	0.033677
 179.44300	2.872021	0.035601
 180.66400	2.877887	0.037795
 181.88400	2.883969	0.040315
 183.10500	2.890272	0.043232
 184.32600	2.896793	0.046633
 185.54600	2.903515	0.050630
 186.76700	2.910398	0.055362
 187.98800	2.917368	0.061000
 189.20800	2.924289	0.067751
 190.42900	2.930933	0.075854
 191.65000	2.936929	0.085560
 192.87100	2.941704	0.097073
 194.09100	2.944419	0.110437
 195.31200	2.943974	0.125319
 196.53300	2.939163	0.140724
 197.75300	2.929149	0.154762
 198.97400	2.914202	0.164830
 200.19500	2.896276	0.168516
 201.41500	2.878631	0.164888
 202.63600	2.864438	0.155088
 203.85700	2.855468	0.141617
 205.07800	2.851837	0.127033
 206.29800	2.852631	0.113134
 207.51900	2.856641	0.100829
 208.74000	2.862786	0.090397
 209.96000	2.870260	0.081771
 211.18100	2.878516	0.074735
 212.40200	2.887203	0.069039
 213.62200	2.896107	0.064447
 214.84300	2.905106	0.060757
 216.06400	2.914130	0.057802
 217.28500	2.923148	0.055448
 218.50500	2.932149	0.053588
 219.72600	2.941136	0.052139
 220.94700	2.950119	0.051033
 222.16700	2.959110	0.050219
 223.38800	2.968128	0.049655
 224.60900	2.977189	0.049309
 225.82900	2.986313	0.049155
 227.05000	2.995517	0.049174
 228.27100	3.004820	0.049349
 229.49200	3.014242	0.049671
 230.71200	3.023800	0.050130
 231.93300	3.033515	0.050721
 233.15400	3.043406	0.051442
 234.37400	3.053493	0.052293
 235.59500	3.063797	0.053273
 236.81600	3.074341	0.054389
 238.03600	3.085145	0.055645
 239.25700	3.096238	0.057051
 240.47800	3.107643	0.058617
 241.69900	3.119391	0.060358
 242.91900	3.131512	0.062291
 244.14000	3.144040	0.064439
 245.36100	3.157013	0.066827
 246.58100	3.170473	0.069490
 247.80200	3.184465	0.072466
 249.02300	3.199042	0.075806
 250.24300	3.214259	0.079570
 251.46400	3.230180	0.083836
 252.68500	3.246876	0.088700
 253.90600	3.264424	0.094282
 255.12600	3.282908	0.100739
 256.34700	3.302415	0.108271
 257.56800	3.323033	0.117137
 258.78800	3.344841	0.127678
 260.00900	3.367891	0.140348
 261.23000	3.392169	0.155741
 262.45000	3.417537	0.174652
 263.67100	3.443622	0.198116
 264.89200	3.469608	0.227448
 266.11300	3.493897	0.264176
 267.33300	3.513611	0.309750
 268.55400	3.524015	0.364659
 269.77500	3.518473	0.426595
 270.99500	3.490356	0.487845
 272.21600	3.438369	0.534476
 273.43700	3.372541	0.551944
 274.65700	3.312245	0.535897
 275.87800	3.274332	0.496248
 277.09900	3.264220	0.449016
 278.32000	3.277963	0.406667
 279.54000	3.308729	0.375466
 280.76100	3.350774	0.357557
 281.98200	3.400343	0.353570
 283.20200	3.455164	0.364330
 284.42300	3.513507	0.391842
 285.64400	3.572934	0.439950
 286.86400	3.628245	0.514657
 288.08500	3.667852	0.623133
 289.30600	3.668720	0.768125
 290.52700	3.596372	0.932450
 291.74700	3.429259	1.060729
 292.96800	3.205508	1.082960
 294.18900	3.012894	0.987475
 295.40900	2.907754	0.832178
 296.63000	2.884670	0.679196
 297.85100	2.912086	0.557003
 299.07100	2.963470	0.468558
 300.29200	3.023911	0.407824
 301.51300	3.086533	0.368181
 302.73400	3.148590	0.344776
 303.95400	3.209131	0.334707
 305.17500	3.267743	0.336742
 306.39600	3.323734	0.351060
 307.61600	3.375260	0.379004
 308.83700	3.418115	0.422471
 310.05800	3.444168	0.481985
 311.27800	3.441123	0.552004
 312.49900	3.398581	0.614400
 313.72000	3.323384	0.640895
 314.94100	3.246437	0.615516
 316.16100	3.199434	0.552293
 317.38200	3.190699	0.478905
 318.60300	3.210584	0.413826
 319.82300	3.246685	0.362833
 321.04400	3.290425	0.325112
 322.26500	3.337139	0.297978
 323.48500	3.384599	0.278837
 324.70600	3.431877	0.265660
 325.92700	3.478682	0.256980
 327.14800	3.525034	0.251762
 328.36800	3.571080	0.249287
 329.58900	3.617025	0.249053
 330.81000	3.663084	0.250719
 332.03000	3.709488	0.254050
 333.25100	3.756453	0.258898
 334.47200	3.804197	0.265174
 335.69200	3.852931	0.272839
 336.91300	3.902861	0.281894
 338.13400	3.954208	0.292379
 339.35500	4.007187	0.304366
 340.57500	4.062026	0.317962
 341.79600	4.118955	0.333307
 343.01700	4.178234	0.350584
 344.23700	4.240129	0.370019
 345.45800	4.304931	0.391890
 346.67900	4.372945	0.416536
 347.89900	4.444519	0.444377
 349.12000	4.520013	0.475922
 350.34100	4.599825	0.511801
 351.56200	4.684375	0.552790
 352.78200	4.774094	0.599848
 354.00300	4.869441	0.654186
 355.22400	4.970837	0.717314
 356.44400	5.078644	0.791147
 357.66500	5.193061	0.878098
 358.88600	5.314027	0.981263
 360.10600	5.440936	1.104550
 361.32700	5.572277	1.252890
 362.54800	5.704976	1.432324
 363.76900	5.833454	1.650025
 364.98900	5.948123	1.913646
 366.21000	6.033611	2.229705
 367.43100	6.067239	2.599952
 368.65100	6.019765	3.015247
 369.87200	5.861699	3.448297
 371.09300	5.577208	3.851497
 372.31300	5.179607	4.168014
 373.53400	4.713889	4.354856
 374.75500	4.239080	4.400699
 375.97600	3.805200	4.323705
 377.19600	3.441823	4.155947
 378.41700	3.160552	3.929355
 379.63800	2.962560	3.669499
 380.85800	2.845145	3.395647
 382.07900	2.805005	3.123224
 383.30000	2.838789	2.866615
 384.52000	2.941736	2.640555
 385.74100	3.105945	2.459683
 386.96200	3.320207	2.336521
 388.18300	3.571841	2.280382
 389.40300	3.848588	2.298609
 390.62400	4.138605	2.399294
 391.84500	4.427470	2.593564
 393.06500	4.692732	2.895642
 394.28600	4.896303	3.317761
 395.50700	4.979016	3.855672
 396.72700	4.870340	4.463120
 397.94800	4.530180	5.036991
 399.16900	4.000880	5.455570
 400.39000	3.358008	5.628028
 401.61000	2.761641	5.604742
 402.83100	2.263942	5.455500
 404.05200	1.872136	5.247523
 405.27200	1.567807	5.016913
 406.49300	1.331489	4.787415
 407.71400	1.146210	4.568016
 408.93400	0.998468	4.360198
 410.15500	0.879105	4.169809
 411.37600	0.782127	3.988358
 412.59700	0.701971	3.823205
 413.81700	0.634775	3.667462
 415.03800	0.578238	3.521025
 416.25900	0.531049	3.385794
 417.47900	0.491575	3.255346
 418.70000	0.457137	3.138469
 419.92100	0.427604	3.023883
 421.14100	0.401803	2.917173
 422.36200	0.379355	2.816098
 423.58300	0.359998	2.717404
 424.80400	0.342545	2.628232
 426.02400	0.327156	2.537198
 427.24500	0.313393	2.454164
 428.46600	0.300963	2.372231
 429.68600	0.289550	2.292438
 430.90700	0.279235	2.217057
 432.12800	0.271107	2.139323
 433.34800	0.262059	2.068888
 434.56900	0.256921	1.993745
 435.79000	0.254302	1.924125
 437.01100	0.252408	1.858044
 438.23100	0.250209	1.790959
 439.45200	0.248598	1.730123
 440.67300	0.246941	1.664703
 441.89300	0.245001	1.604432
 443.11400	0.243337	1.541536
 444.33500	0.242276	1.477965
 445.55500	0.241745	1.416561
 446.77600	0.241511	1.348241
 447.99700	0.243922	1.284180
 449.21800	0.247731	1.213092
 450.43800	0.255666	1.141102
 451.65900	0.268406	1.067373
 452.88000	0.286295	0.989939
 454.10000	0.310646	0.915344
 455.32100	0.340911	0.834639
 456.54200	0.381598	0.754800
 457.76200	0.436367	0.673175
 458.98300	0.510136	0.598620
 460.20400	0.600986	0.551921
 461.42500	0.694311	0.523147
 462.64500	0.790499	0.518151
 463.86600	0.875058	0.533735
 465.08700	0.941848	0.561952
 466.30700	0.990726	0.592318
 467.52800	1.024891	0.618242
 468.74900	1.050192	0.641308
 469.96900	1.062351	0.640276
 471.19000	1.099154	0.630819
 472.41100	1.140560	0.639572
 473.63200	1.164444	0.654182
 474.85200	1.169907	0.648292
 476.07300	1.198380	0.601502
 477.29400	1.281501	0.575620
 478.51400	1.365430	0.580085
 479.73500	1.448551	0.600409
 480.95600	1.530533	0.634154
 482.17600	1.609943	0.684713
 483.39700	1.683463	0.756635
 484.61800	1.724132	0.826864
 485.83900	1.787788	0.898314
 487.05900	1.839836	0.997843
 488.28000	1.872017	1.115173
 489.50100	1.883455	1.233204
 490.72100	1.869901	1.352631
 491.94200	1.855951	1.476334
 493.16300	1.802778	1.611625
 494.38300	1.730756	1.766725
 495.60400	1.627647	1.895180
 496.82500	1.500731	1.990911
 498.04600	1.374069	2.064169
 499.26600	1.234915	2.086876
 500.48700	1.114853	2.092578
 501.70800	1.006784	2.073903
 502.92800	0.915312	2.041641
 504.14900	0.843818	2.005460
 505.37000	0.783117	1.963252
 506.59000	0.736689	1.926382
 507.81100	0.696040	1.887898
 509.03200	0.660937	1.851806
 510.25300	0.630067	1.816299
 511.47300	0.602584	1.780650
 512.69400	0.578216	1.745543
 513.91500	0.549873	1.687960
 515.13500	0.525380	1.631251
 516.35600	0.504301	1.575409
 517.57700	0.486275	1.520385
 518.79700	0.471010	1.466108
 520.01800	0.458274	1.412488
 521.23900	0.447889	1.359430
 522.46000	0.439726	1.306827
 523.68000	0.433705	1.254577
 524.90100	0.429785	1.202566
 526.12200	0.427976	1.150698
 527.34200	0.428331	1.098884
 528.56300	0.430954	1.047052
 529.78400	0.436000	0.995157
 531.00400	0.443681	0.943202
 532.22500	0.454261	0.891249
 533.44600	0.468048	0.839459
 534.66700	0.485384	0.788102
 535.88700	0.501481	0.691615
 537.10800	0.529758	0.600848
 538.32900	0.570708	0.522136
 539.54900	0.620787	0.461343
 540.77000	0.673037	0.421926
 541.99100	0.719938	0.411522
 543.21100	0.734724	0.425705
 544.43200	0.743551	0.437986
 545.65300	0.740045	0.443476
 546.87400	0.728076	0.437724
 548.09400	0.715438	0.416885
 549.31500	0.708166	0.378903
 550.53600	0.718820	0.333918
 551.75600	0.745685	0.286898
 552.97700	0.784519	0.251125
 554.19800	0.828421	0.224570
 555.41800	0.875356	0.204485
 556.63900	0.929773	0.200533
 557.86000	0.963336	0.213649
 559.08100	0.985222	0.216944
 560.30100	1.005805	0.212779
 561.52200	1.030327	0.204065
 562.74300	1.060351	0.195087
 563.96300	1.094953	0.191800
 565.18400	1.123551	0.196525
 566.40500	1.145794	0.194506
 567.62500	1.173911	0.188543
 568.84600	1.205122	0.185203
 570.06700	1.233823	0.184656
 571.28800	1.262668	0.172369
 572.50800	1.315453	0.167258
 573.72900	1.359311	0.185093
 574.95000	1.386750	0.193418
 576.17000	1.421866	0.187250
 577.39100	1.481586	0.183070
 578.61200	1.541448	0.211932
 579.83200	1.585070	0.233250
 581.05300	1.632133	0.255713
 582.27400	1.687437	0.278334
 583.49500	1.747203	0.306882
 584.71500	1.811543	0.345613
 585.93600	1.893901	0.389909
 587.15700	1.955712	0.478328
 588.37700	2.019438	0.577976
 589.59800	2.072172	0.644190
 590.81900	2.125708	0.773239
 592.03900	2.178154	0.877853
 593.26000	2.190761	1.003197
 594.48100	2.165042	1.151444
 595.70200	2.053447	1.322504
 596.92200	1.924499	1.511763
 598.14300	1.764526	1.707944
 599.36400	1.559733	1.892926
 600.58400	1.387049	2.046046
 601.80500	1.198292	2.151692
 603.02600	1.059092	2.204995
 604.24600	0.938205	2.211453
 605.46700	0.838880	2.182103
 606.68800	0.767299	2.128600
 607.90900	0.676691	2.060560
 609.12900	0.621137	1.984870
 610.35000	0.590774	1.906077
 611.57100	0.563722	1.826983
 612.79100	0.537565	1.749216
 614.01200	0.510300	1.673646
 615.23300	0.491436	1.600681
 616.45300	0.471637	1.530439
 617.67400	0.455607	1.462879
 618.89500	0.440882	1.397844
 620.11600	0.428787	1.335154
 621.33600	0.408895	1.274590
 622.55700	0.392086	1.215931
 623.77800	0.377991	1.158954
 624.99800	0.366324	1.103445
 626.21900	0.356868	1.049196
 627.44000	0.349472	0.996010
 628.66000	0.344039	0.943713
 629.88100	0.340525	0.892120
 631.10200	0.338941	0.841082
 632.32300	0.339352	0.790467
 633.54300	0.341883	0.740172
 634.76400	0.346723	0.690146
 635.98500	0.354121	0.640405
 637.20500	0.364384	0.591075
 638.42600	0.377839	0.542435
 639.64700	0.394779	0.494948
 640.86700	0.415347	0.449286
 642.08800	0.439417	0.406251
 643.30900	0.466513	0.366625
 644.53000	0.495851	0.330972
 645.75000	0.526505	0.299504
 646.97100	0.557600	0.272095
 648.19200	0.588447	0.248382
 649.41200	0.618569	0.227899
 650.63300	0.647686	0.210166
 651.85400	0.675648	0.194747
 653.07400	0.702403	0.181266
 654.29500	0.727957	0.169408
 655.51600	0.752346	0.158916
 656.73700	0.775626	0.149577
 657.95700	0.797862	0.141219
 659.17800	0.819119	0.133700
 660.39900	0.839460	0.126905
 661.61900	0.858951	0.120736
 662.84000	0.877650	0.115112
 664.06100	0.895610	0.109967
 665.28100	0.912882	0.105244
 666.50200	0.929513	0.100893
 667.72300	0.945545	0.096874
 668.94400	0.961017	0.093151
 670.16400	0.975964	0.089694
 671.38500	0.990420	0.086476
 672.60600	1.004416	0.083473
 673.82600	1.017979	0.080667
 675.04700	1.031134	0.078038
 676.26800	1.043905	0.075571
 677.48800	1.056315	0.073252
 678.70900	1.068382	0.071069
 679.93000	1.080126	0.069011
 681.15100	1.091563	0.067067
 682.37100	1.102712	0.065229
 683.59200	1.113585	0.063490
 684.81300	1.124197	0.061841
 686.03300	1.134560	0.060276
 687.25400	1.144688	0.058789
 688.47500	1.154592	0.057375
 689.69500	1.164281	0.056030
 690.91600	1.173766	0.054747
 692.13700	1.183056	0.053525
 693.35800	1.192160	0.052358
 694.57800	1.201087	0.051243
 695.79900	1.209844	0.050178
 697.02000	1.218439	0.049158
 698.24000	1.226878	0.048183
 699.46100	1.235168	0.047248
 700.68200	1.243315	0.046352
 701.90200	1.251325	0.045493
 703.12300	1.259204	0.044669
 704.34400	1.266958	0.043877
 705.56500	1.274590	0.043117
 706.78500	1.282106	0.042386
 708.00600	1.289511	0.041684
 709.22700	1.296809	0.041008
 710.44700	1.304003	0.040358
 711.66800	1.311100	0.039732
 712.88900	1.318099	0.039130
 714.10900	1.325008	0.038549
 715.33000	1.331828	0.037990
 716.55100	1.338564	0.037450
 717.77200	1.345219	0.036931
 718.99200	1.351794	0.036429
 720.21300	1.358294	0.035946
 721.43400	1.364722	0.035479
 722.65400	1.371078	0.035029
 723.87500	1.377368	0.034595
 725.09600	1.383593	0.034176
 726.31600	1.389756	0.033771
 727.53700	1.395859	0.033381
 728.75800	1.401903	0.033004
 729.97900	1.407892	0.032640
 731.19900	1.413828	0.032288
 732.42000	1.419712	0.031949
 733.64100	1.425547	0.031622
 734.86100	1.431334	0.031306
 736.08200	1.437076	0.031001
 737.30300	1.442775	0.030706
 738.52300	1.448431	0.030422
 739.74400	1.454047	0.030149
 740.96500	1.459625	0.029885
 742.18600	1.465165	0.029630
 743.40600	1.470672	0.029384
 744.62700	1.476143	0.029148
 745.84800	1.481583	0.028921
 747.06800	1.486992	0.028701
 748.28900	1.492372	0.028491
 749.51000	1.497725	0.028288
 750.73000	1.503051	0.028094
 751.95100	1.508353	0.027907
 753.17200	1.513631	0.027728
 754.39300	1.518886	0.027556
 755.61300	1.524122	0.027392
 756.83400	1.529338	0.027234
 758.05500	1.534535	0.027084
 759.27500	1.539716	0.026941
 760.49600	1.544882	0.026805
 761.71700	1.550033	0.026675
 762.93700	1.555171	0.026552
 764.15800	1.560298	0.026436
 765.37900	1.565414	0.026326
 766.60000	1.570521	0.026223
 767.82000	1.575619	0.026126
 769.04100	1.580712	0.026036
 770.26200	1.585798	0.025951
 771.48200	1.590881	0.025873
 772.70300	1.595960	0.025801
 773.92400	1.601038	0.025736
 775.14400	1.606116	0.025676
 776.36500	1.611193	0.025623
 777.58600	1.616274	0.025576
 778.80700	1.621357	0.025535
 780.02700	1.626446	0.025501
 781.24800	1.631540	0.025473
 782.46900	1.636643	0.025451
 783.68900	1.641753	0.025436
 784.91000	1.646875	0.025427
 786.13100	1.652008	0.025424
 787.35100	1.657154	0.025429
 788.57200	1.662316	0.025440
 789.79300	1.667493	0.025458
 791.01400	1.672690	0.025484
 792.23400	1.677906	0.025516
 793.45500	1.683143	0.025557
 794.67600	1.688405	0.025605
 795.89600	1.693692	0.025661
 797.11700	1.699006	0.025725
 798.33800	1.704350	0.025799
 799.55800	1.709726	0.025881
 800.77900	1.715138	0.025974
 802.00000	1.720586	0.026076
 803.22100	1.726075	0.026190
 804.44100	1.731607	0.026315
 805.66200	1.737186	0.026453
 806.88300	1.742815	0.026604
 808.10300	1.748499	0.026770
 809.32400	1.754241	0.026953
 810.54500	1.760047	0.027154
 811.76500	1.765922	0.027374
 812.98600	1.771873	0.027618
 814.20700	1.777906	0.027887
 815.42800	1.784030	0.028186
 816.64800	1.790254	0.028519
 817.86900	1.796589	0.028892
 819.09000	1.803047	0.029312
 820.31000	1.809644	0.029790
 821.53100	1.816397	0.030338
 822.75200	1.823328	0.030973
 823.97200	1.830464	0.031716
 825.19300	1.837836	0.032599
 826.41400	1.845483	0.033664
 827.63500	1.853455	0.034971
 828.85500	1.861809	0.036609
 830.07600	1.870619	0.038710
 831.29700	1.879965	0.041476
 832.51700	1.889925	0.045226
 833.73800	1.900533	0.050476
 834.95900	1.911657	0.058068
 836.17900	1.922657	0.069339
 837.40000	1.931506	0.086106
 838.62100	1.933108	0.109343
 839.84200	1.919180	0.133877
 841.06200	1.889207	0.143398
 842.28300	1.862493	0.128763
 843.50400	1.853675	0.104181
 844.72400	1.858241	0.083309
 845.94500	1.868432	0.068858
 847.16600	1.880192	0.059356
 848.38600	1.892006	0.053101
 849.60700	1.903419	0.048918
 850.82800	1.914362	0.046075
 852.04900	1.924883	0.044124
 853.26900	1.935063	0.042784
 854.49000	1.944979	0.041877
 855.71100	1.954702	0.041285
 856.93100	1.964287	0.040928
 858.15200	1.973783	0.040754
 859.37300	1.983229	0.040724
 860.59300	1.992658	0.040810
 861.81400	2.002098	0.040993
 863.03500	2.011573	0.041258
 864.25600	2.021103	0.041596
 865.47600	2.030708	0.041997
 866.69700	2.040403	0.042456
 867.91800	2.050204	0.042968
 869.13800	2.060124	0.043531
 870.35900	2.070177	0.044142
 871.58000	2.080376	0.044801
 872.80000	2.090732	0.045506
 874.02100	2.101258	0.046256
 875.24200	2.111966	0.047053
 876.46300	2.122868	0.047897
 877.68300	2.133976	0.048788
 878.90400	2.145301	0.049728
 880.12500	2.151643	0.050719
 881.34500	2.158267	0.051762
 882.56600	2.165225	0.052860
 883.78700	2.172570	0.054015
 885.00700	2.179984	0.055229
 886.22800	2.186376	0.056507
 887.44900	2.193733	0.057851
 888.67000	2.202365	0.059264
 889.89000	2.210529	0.060753
 891.11100	2.218224	0.062320
 892.33200	2.226833	0.063971
 893.55200	2.237862	0.065711
 894.77300	2.250901	0.067548
 895.99400	2.264006	0.069486
 897.21400	2.275169	0.071534
 898.43500	2.284949	0.073700
 899.65600	2.294586	0.075993
 900.87700	2.303203	0.078422
 902.09700	2.319369	0.081000
 903.31800	2.332628	0.083738
 904.53900	2.344508	0.086649
 905.75900	2.356247	0.089750
 906.98000	2.368096	0.093058
 908.20100	2.378379	0.096591
 909.42100	2.397360	0.100372
 910.64200	2.418797	0.104425
 911.86300	2.439521	0.108778
 913.08400	2.458063	0.113461
 914.30400	2.474905	0.118513
 915.52500	2.492807	0.123975
 916.74600	2.517841	0.129893
 917.96600	2.542628	0.136324
 919.18700	2.567278	0.143333
 920.40800	2.590152	0.150995
 921.62800	2.610934	0.159399
 922.84900	2.634068	0.168650
 924.07000	2.665297	0.178876
 925.29100	2.702207	0.190227
 926.51100	2.737027	0.202886
 927.73200	2.768579	0.217076
 928.95300	2.799415	0.233073
 930.17300	2.833055	0.251219
 931.39400	2.878521	0.271944
 932.61500	2.925115	0.295797
 933.83500	2.973260	0.323474
 935.05600	3.020012	0.355900
 936.27700	3.068462	0.394285
 937.49800	3.137252	0.440259
 938.71800	3.205571	0.496045
 939.93900	3.276120	0.564733
 941.16000	3.356014	0.650684
 942.38000	3.467626	0.760152
 943.60100	3.599115	0.902182
 944.82200	3.733495	1.089886
 946.04200	3.913713	1.208894
 947.26300	4.115898	1.368566
 948.48400	4.343609	1.575397
 949.70500	4.560512	1.835684
 950.92500	4.705418	2.151320
 952.14600	4.689553	2.541836
 953.36700	4.145629	2.922877
 954.58700	3.430263	3.032679
 955.80800	2.759490	2.927548
 957.02900	2.271579	2.567165
 958.24900	2.055880	2.117426
 959.47000	2.044426	1.693762
 960.69100	2.207507	1.372437
 961.91200	2.466424	1.152125
 963.13200	2.791294	1.060761
 964.35300	3.124446	1.097106
 965.57400	3.437055	1.245029
 966.79400	3.744893	1.486663
 968.01500	3.936666	1.896716
 969.23600	4.030817	2.387759
 970.45600	3.923742	2.916528
 971.67700	3.637578	3.410403
 972.89800	3.216742	3.779183
 974.11900	2.680151	3.953150
 975.33900	2.238197	3.949249
 976.56000	1.858449	3.846349
 977.78100	1.553577	3.717665
 979.00100	1.312269	3.570315
 980.22200	1.123689	3.407936
 981.44300	0.983904	3.279709
 982.66300	0.873135	3.144258
 983.88400	0.784197	3.039185
 985.10500	0.708190	2.939593
 986.32600	0.643857	2.850449
 987.54600	0.589709	2.775571
 988.76700	0.540016	2.705393
 989.98800	0.493446	2.647220
 991.20800	0.447124	2.589087
 992.42900	0.413656	2.512397
 993.65000	0.384537	2.439934
 994.87000	0.359036	2.371345
 996.09100	0.336565	2.306293
 997.31200	0.316658	2.244488
 998.53300	0.298928	2.185632
 999.75300	0.283062	2.129480
 1000.97400	0.268805	2.075803
 1002.19500	0.255941	2.024396
 1003.41500	0.244292	1.975074
 1004.63600	0.233709	1.927670
 1005.85700	0.224065	1.882033
 1007.07700	0.215252	1.838029
 1008.29800	0.207177	1.795530
 1009.51900	0.199762	1.754426
 1010.74000	0.192938	1.714615
 1011.96000	0.186648	1.676004
 1013.18100	0.180839	1.638508
 1014.40200	0.175467	1.602048
 1015.62200	0.170493	1.566553
 1016.84300	0.165882	1.531954
 1018.06400	0.161605	1.498197
 1019.28400	0.157635	1.465217
 1020.50500	0.153948	1.432964
 1021.72600	0.150523	1.401389
 1022.94700	0.147343	1.370446
 1024.16700	0.144391	1.340091
 1025.38800	0.141652	1.310286
 1026.60900	0.139115	1.280986
 1027.82900	0.136767	1.252162
 1029.05000	0.134599	1.223771
 1030.27100	0.132603	1.195791
 1031.49100	0.130771	1.168177
 1032.71200	0.129098	1.140911
 1033.93300	0.127576	1.113957
 1035.15400	0.126204	1.087280
 1036.37400	0.124977	1.060862
 1037.59500	0.123893	1.034668
 1038.81600	0.122950	1.008676
 1040.03600	0.122150	0.982851
 1041.25700	0.121492	0.957177
 1042.47800	0.120978	0.931613
 1043.69800	0.120612	0.906142
 1044.91900	0.120398	0.880732
 1046.14000	0.120342	0.855345
 1047.36100	0.120453	0.829961
 1048.58100	0.120739	0.804540
 1049.80200	0.121215	0.779058
 1051.02300	0.121895	0.753467
 1052.24300	0.122797	0.727740
 1053.46400	0.123947	0.701826
 1054.68500	0.125371	0.675690
 1055.90500	0.127107	0.649280
 1057.12600	0.129199	0.622536
 1058.34700	0.131702	0.595413
 1059.56800	0.134690	0.567840
 1060.78800	0.138250	0.539762
 1062.00900	0.142501	0.511098
 1063.23000	0.147593	0.481793
 1064.45000	0.153728	0.451774
 1065.67100	0.161162	0.421017
 1066.89200	0.170233	0.389533
 1068.11200	0.181367	0.357426
 1069.33300	0.195051	0.324999
 1070.55400	0.211770	0.292805
 1071.77500	0.231800	0.261738
 1072.99500	0.254988	0.232872
 1074.21600	0.280596	0.207172
 1075.43700	0.307542	0.185097
 1076.65700	0.334772	0.166554
 1077.87800	0.361509	0.151111
 1079.09900	0.387315	0.138219
 1080.31900	0.411982	0.127373
 1081.54000	0.435458	0.118149
 1082.76100	0.457756	0.110222
 1083.98200	0.478942	0.103334
 1085.20200	0.499081	0.097291
 1086.42300	0.518255	0.091942
 1087.64400	0.536541	0.087168
 1088.86400	0.554003	0.082878
 1090.08500	0.570707	0.078998
 1091.30600	0.586710	0.075470
 1092.52600	0.602066	0.072245
 1093.74700	0.616817	0.069283
 1094.96800	0.631011	0.066552
 1096.18900	0.644681	0.064025
 1097.40900	0.657864	0.061678
 1098.63000	0.670593	0.059491
 1099.85100	0.682893	0.057449
 1101.07100	0.694792	0.055536
 1102.29200	0.706310	0.053741
 1103.51300	0.717473	0.052051
 1104.73300	0.728296	0.050459
 1105.95400	0.738802	0.048955
 1107.17500	0.749003	0.047532
 1108.39600	0.758917	0.046183
 1109.61600	0.768559	0.044902
 1110.83700	0.777940	0.043685
 1112.05800	0.787074	0.042527
 1113.27800	0.795970	0.041423
 1114.49900	0.804642	0.040370
 1115.72000	0.813096	0.039364
 1116.94000	0.821345	0.038401
 1118.16100	0.829395	0.037480
 1119.38200	0.837255	0.036598
 1120.60300	0.844934	0.035752
 1121.82300	0.852438	0.034939
 1123.04400	0.859774	0.034159
 1124.26500	0.866948	0.033409
 1125.48500	0.873967	0.032687
 1126.70600	0.880835	0.031992
 1127.92700	0.887558	0.031322
 1129.14700	0.894144	0.030676
 1130.36800	0.900594	0.030054
 1131.58900	0.906915	0.029452
 1132.81000	0.913109	0.028871
 1134.03000	0.919184	0.028310
 1135.25100	0.925140	0.027767
 1136.47200	0.930984	0.027242
 1137.69200	0.936717	0.026734
 1138.91300	0.942343	0.026242
 1140.13400	0.947868	0.025765
 1141.35400	0.953291	0.025302
 1142.57500	0.958619	0.024854
 1143.79600	0.963851	0.024419
 1145.01700	0.968993	0.023997
 1146.23700	0.974046	0.023587
 1147.45800	0.979013	0.023189
 1148.67900	0.983895	0.022802
 1149.89900	0.988697	0.022426
 1151.12000	0.993420	0.022060
 1152.34100	0.998065	0.021704
 1153.56100	1.002636	0.021358
 1154.78200	1.007134	0.021021
 1156.00300	1.011561	0.020693
 1157.22400	1.015918	0.020374
 1158.44400	1.020209	0.020062
 1159.66500	1.024433	0.019759
 1160.88600	1.028593	0.019463
 1162.10600	1.032691	0.019175
 1163.32700	1.036728	0.018893
 1164.54800	1.040707	0.018619
 1165.76800	1.044626	0.018351
 1166.98900	1.048490	0.018089
 1168.21000	1.052297	0.017834
 1169.43100	1.056051	0.017585
 1170.65100	1.059752	0.017341
 1171.87200	1.063402	0.017103
 1173.09300	1.067002	0.016870
 1174.31300	1.070552	0.016643
 1175.53400	1.074054	0.016421
 1176.75500	1.077509	0.016203
 1177.97500	1.080918	0.015990
 1179.19600	1.084281	0.015782
 1180.41700	1.087601	0.015579
 1181.63800	1.090878	0.015379
 1182.85800	1.094113	0.015184
 1184.07900	1.097306	0.014993
 1185.30000	1.100459	0.014806
 1186.52000	1.103572	0.014623
 1187.74100	1.106646	0.014444
 1188.96200	1.109683	0.014268
 1190.18200	1.112681	0.014095
 1191.40300	1.115643	0.013926
 1192.62400	1.118570	0.013761
 1193.84500	1.121462	0.013598
 1195.06500	1.124319	0.013439
 1196.28600	1.127142	0.013283
 1197.50700	1.129932	0.013130
 1198.72700	1.132690	0.012979
 1199.94800	1.135416	0.012832
 1201.16900	1.138110	0.012687
 1202.38900	1.140773	0.012545
 1203.61000	1.143407	0.012405
 1204.83100	1.146011	0.012269
 1206.05200	1.148586	0.012134
 1207.27200	1.151132	0.012002
 1208.49300	1.153651	0.011872
 1209.71400	1.156142	0.011745
 1210.93400	1.158606	0.011620
 1212.15500	1.161043	0.011497
 1213.37600	1.163453	0.011376
 1214.59600	1.165839	0.011257
 1215.81700	1.168199	0.011140
 1217.03800	1.170535	0.011025
 1218.25900	1.172846	0.010912
 1219.47900	1.175133	0.010801
 1220.70000	1.177397	0.010692
 1221.92100	1.179637	0.010585
 1223.14100	1.181854	0.010479
 1224.36200	1.184049	0.010375
 1225.58300	1.186223	0.010273
 1226.80300	1.188374	0.010173
 1228.02400	1.190505	0.010074
 1229.24500	1.192613	0.009976
 1230.46600	1.194702	0.009880
 1231.68600	1.196770	0.009786
 1232.90700	1.198818	0.009693
 1234.12800	1.200846	0.009601
 1235.34800	1.202855	0.009511
 1236.56900	1.204845	0.009423
 1237.79000	1.206815	0.009335
 1239.01000	1.208768	0.009249
 1240.23100	1.210702	0.009165
 1241.45200	1.212618	0.009081
 1242.67300	1.214517	0.008999
 1243.89300	1.216397	0.008918
 1245.11400	1.218261	0.008838
 1246.33500	1.220108	0.008759
 1247.55500	1.221938	0.008682
 1248.77600	1.223752	0.008605
 1249.99700	1.225549	0.008530
 1251.21700	1.227330	0.008455
 1252.43800	1.229096	0.008382
 1253.65900	1.230846	0.008310
 1254.88000	1.232581	0.008239
 1256.10000	1.234300	0.008168
 1257.32100	1.236005	0.008099
 1258.54200	1.237695	0.008031
 1259.76200	1.239371	0.007963
 1260.98300	1.241032	0.007897
 1262.20400	1.242679	0.007831
 1263.42400	1.244313	0.007767
 1264.64500	1.245932	0.007703
 1265.86600	1.247538	0.007640
 1267.08700	1.249131	0.007578
 1268.30700	1.250710	0.007517
 1269.52800	1.252277	0.007456
 1270.74900	1.253830	0.007396
 1271.96900	1.255371	0.007337
 1273.19000	1.256900	0.007279
 1274.41100	1.258416	0.007222
 1275.63100	1.259920	0.007165
 1276.85200	1.261411	0.007109
 1278.07300	1.262892	0.007054
 1279.29400	1.264360	0.006999
 1280.51400	1.265817	0.006945
 1281.73500	1.267262	0.006892
 1282.95600	1.268696	0.006839
 1284.17600	1.270119	0.006787
 1285.39700	1.271531	0.006736
 1286.61800	1.272931	0.006685
 1287.83800	1.274322	0.006635
 1289.05900	1.275701	0.006585
 1290.28000	1.277070	0.006537
 1291.50100	1.278429	0.006488
 1292.72100	1.279778	0.006440
 1293.94200	1.281116	0.006393
 1295.16300	1.282445	0.006347
 1296.38300	1.283763	0.006301
 1297.60400	1.285072	0.006255
 1298.82500	1.286371	0.006210
 1300.04500	1.287661	0.006165
 1301.26600	1.288941	0.006121
 1302.48700	1.290212	0.006078
 1303.70800	1.291474	0.006035
 1304.92800	1.292726	0.005993
 1306.14900	1.293970	0.005950
 1307.37000	1.295205	0.005909
 1308.59000	1.296430	0.005868
 1309.81100	1.297648	0.005827
 1311.03200	1.298856	0.005787
 1312.25200	1.300057	0.005747
 1313.47300	1.301248	0.005708
 1314.69400	1.302432	0.005669
 1315.91500	1.303607	0.005631
 1317.13500	1.304774	0.005593
 1318.35600	1.305933	0.005555
 1319.57700	1.307084	0.005518
 1320.79700	1.308228	0.005481
 1322.01800	1.309363	0.005445
 1323.23900	1.310491	0.005408
 1324.45900	1.311611	0.005373
 1325.68000	1.312724	0.005338
 1326.90100	1.313829	0.005303
 1328.12200	1.314927	0.005268
 1329.34200	1.316017	0.005234
 1330.56300	1.317100	0.005200
 1331.78400	1.318176	0.005167
 1333.00400	1.319245	0.005133
 1334.22500	1.320307	0.005101
 1335.44600	1.321363	0.005068
 1336.66600	1.322411	0.005036
 1337.88700	1.323452	0.005004
 1339.10800	1.324487	0.004973
 1340.32900	1.325515	0.004941
 1341.54900	1.326537	0.004911
 1342.77000	1.327552	0.004880
 1343.99100	1.328560	0.004850
 1345.21100	1.329563	0.004820
 1346.43200	1.330558	0.004790
 1347.65300	1.331548	0.004761
 1348.87300	1.332531	0.004732
 1350.09400	1.333509	0.004703
 1351.31500	1.334480	0.004674
 1352.53600	1.335445	0.004646
 1353.75600	1.336404	0.004618
 1354.97700	1.337358	0.004590
 1356.19800	1.338305	0.004563
 1357.41800	1.339247	0.004536
 1358.63900	1.340183	0.004509
 1359.86000	1.341113	0.004482
 1361.08000	1.342038	0.004455
 1362.30100	1.342957	0.004429
 1363.52200	1.343870	0.004403
 1364.74300	1.344778	0.004378
 1365.96300	1.345681	0.004352
 1367.18400	1.346578	0.004327
 1368.40500	1.347471	0.004302
 1369.62500	1.348357	0.004277
 1370.84600	1.349239	0.004253
 1372.06700	1.350115	0.004228
 1373.28700	1.350986	0.004204
 1374.50800	1.351853	0.004180
 1375.72900	1.352714	0.004157
 1376.95000	1.353570	0.004133
 1378.17000	1.354421	0.004110
 1379.39100	1.355267	0.004087
 1380.61200	1.356109	0.004064
 1381.83200	1.356945	0.004041
 1383.05300	1.357777	0.004019
 1384.27400	1.358605	0.003996
 1385.49400	1.359427	0.003975
 1386.71500	1.360245	0.003953
 1387.93600	1.361058	0.003931
 1389.15700	1.361867	0.003909
 1390.37700	1.362671	0.003888
 1391.59800	1.363471	0.003867
 1392.81900	1.364266	0.003846
 1394.03900	1.365057	0.003825
 1395.26000	1.365843	0.003805
 1396.48100	1.366626	0.003784
 1397.70100	1.367404	0.003764
 1398.92200	1.368177	0.003744
 1400.14300	1.368947	0.003724
 1401.36400	1.369712	0.003704
 1402.58400	1.370473	0.003685
 1403.80500	1.371230	0.003665
 1405.02600	1.371983	0.003646
 1406.24600	1.372732	0.003627
 1407.46700	1.373477	0.003608
 1408.68800	1.374218	0.003589
 1409.90800	1.374955	0.003571
 1411.12900	1.375688	0.003552
 1412.35000	1.376417	0.003534
 1413.57100	1.377142	0.003516
 1414.79100	1.377864	0.003497
 1416.01200	1.378581	0.003480
 1417.23300	1.379295	0.003462
 1418.45300	1.380006	0.003444
 1419.67400	1.380712	0.003427
 1420.89500	1.381415	0.003409
 1422.11500	1.382114	0.003392
 1423.33600	1.382810	0.003375
 1424.55700	1.383502	0.003358
 1425.77800	1.384191	0.003341
 1426.99800	1.384876	0.003325
 1428.21900	1.385557	0.003308
 1429.44000	1.386235	0.003292
 1430.66000	1.386910	0.003275
 1431.88100	1.387581	0.003259
 1433.10200	1.388249	0.003243
 1434.32200	1.388914	0.003227
 1435.54300	1.389575	0.003212
 1436.76400	1.390233	0.003196
 1437.98500	1.390887	0.003180
 1439.20500	1.391539	0.003165
 1440.42600	1.392187	0.003150
 1441.64700	1.392832	0.003135
 1442.86700	1.393473	0.003119
 1444.08800	1.394112	0.003104
 1445.30900	1.394747	0.003090
 1446.52900	1.395380	0.003075
 1447.75000	1.396009	0.003060
 1448.97100	1.396635	0.003046
 1450.19200	1.397258	0.003031
 1451.41200	1.397878	0.003017
 1452.63300	1.398496	0.003003
 1453.85400	1.399110	0.002989
 1455.07400	1.399721	0.002974
 1456.29500	1.400329	0.002961
 1457.51600	1.400935	0.002947
 1458.73600	1.401537	0.002933
 1459.95700	1.402137	0.002919
 1461.17800	1.402734	0.002906
 1462.39900	1.403328	0.002893
 1463.61900	1.403919	0.002879
 1464.84000	1.404507	0.002866
 1466.06100	1.405093	0.002853
 1467.28100	1.405676	0.002840
 1468.50200	1.406256	0.002827
 1469.72300	1.406833	0.002814
 1470.94300	1.407408	0.002801
 1472.16400	1.407980	0.002789
 1473.38500	1.408550	0.002776
 1474.60600	1.409117	0.002763
 1475.82600	1.409681	0.002751
 1477.04700	1.410243	0.002739
 1478.26800	1.410802	0.002726
 1479.48800	1.411358	0.002714
 1480.70900	1.411912	0.002702
 1481.93000	1.412464	0.002690
 1483.15000	1.413013	0.002678
 1484.37100	1.413559	0.002667
 1485.59200	1.414103	0.002655
 1486.81300	1.414645	0.002643
 1488.03300	1.415184	0.002632
 1489.25400	1.415721	0.002620
 1490.47500	1.416255	0.002609
 1491.69500	1.416787	0.002597
 1492.91600	1.417317	0.002586
 1494.13700	1.417844	0.002575
 1495.35700	1.418369	0.002564
 1496.57800	1.418892	0.002553
 1497.79900	1.419412	0.002542
 1499.02000	1.419930	0.002531
 1500.24000	1.420446	0.002520
 1501.46100	1.420959	0.002509
 1502.68200	1.421470	0.002498
 1503.90200	1.421979	0.002488
 1505.12300	1.422486	0.002477
 1506.34400	1.422991	0.002467
 1507.56400	1.423493	0.002456
 1508.78500	1.423994	0.002446
 1510.00600	1.424492	0.002436
 1511.22700	1.424988	0.002425
 1512.44700	1.425482	0.002415
 1513.66800	1.425973	0.002405
 1514.88900	1.426463	0.002395
 1516.10900	1.426950	0.002385
 1517.33000	1.427436	0.002375
 1518.55100	1.427919	0.002365
 1519.77100	1.428401	0.002356
 1520.99200	1.428880	0.002346
 1522.21300	1.429358	0.002336
 1523.43400	1.429833	0.002327
 1524.65400	1.430306	0.002317
 1525.87500	1.430778	0.002308
 1527.09600	1.431247	0.002298
 1528.31600	1.431714	0.002289
 1529.53700	1.432180	0.002280
 1530.75800	1.432643	0.002270
 1531.97800	1.433105	0.002261
 1533.19900	1.433565	0.002252
 1534.42000	1.434023	0.002243
 1535.64100	1.434479	0.002234
 1536.86100	1.434933	0.002225
 1538.08200	1.435385	0.002216
 1539.30300	1.435835	0.002207
 1540.52300	1.436284	0.002199
 1541.74400	1.436731	0.002190
 1542.96500	1.437176	0.002181
 1544.18500	1.437619	0.002172
 1545.40600	1.438060	0.002164
 1546.62700	1.438500	0.002155
 1547.84800	1.438937	0.002147
 1549.06800	1.439373	0.002138
 1550.28900	1.439808	0.002130
 1551.51000	1.440240	0.002122
 1552.73000	1.440671	0.002113
 1553.95100	1.441100	0.002105
 1555.17200	1.441527	0.002097
 1556.39200	1.441953	0.002089
 1557.61300	1.442377	0.002081
 1558.83400	1.442800	0.002073
 1560.05500	1.443220	0.002065
 1561.27500	1.443639	0.002057
 1562.49600	1.444057	0.002049
 1563.71700	1.444472	0.002041
 1564.93700	1.444886	0.002033
 1566.15800	1.445299	0.002025
 1567.37900	1.445710	0.002018
 1568.59900	1.446119	0.002010
 1569.82000	1.446527	0.002002
 1571.04100	1.446933	0.001995
 1572.26200	1.447337	0.001987
 1573.48200	1.447740	0.001980
 1574.70300	1.448142	0.001972
 1575.92400	1.448542	0.001965
 1577.14400	1.448940	0.001957
 1578.36500	1.449337	0.001950
 1579.58600	1.449732	0.001943
 1580.80600	1.450126	0.001936
 1582.02700	1.450518	0.001928
 1583.24800	1.450909	0.001921
 1584.46900	1.451298	0.001914
 1585.68900	1.451686	0.001907
 1586.91000	1.452073	0.001900
 1588.13100	1.452458	0.001893
 1589.35100	1.452841	0.001886
 1590.57200	1.453223	0.001879
 1591.79300	1.453604	0.001872
 1593.01300	1.453983	0.001865
 1594.23400	1.454361	0.001858
 1595.45500	1.454737	0.001852
 1596.67600	1.455112	0.001845
 1597.89600	1.455486	0.001838
 1599.11700	1.455858	0.001831
 1600.33800	1.456229	0.001825
 1601.55800	1.456598	0.001818
 1602.77900	1.456966	0.001812
 1604.00000	1.457333	0.001805
 1605.22000	1.457698	0.001799
 1606.44100	1.458062	0.001792
 1607.66200	1.458425	0.001786
 1608.88300	1.458786	0.001780
 1610.10300	1.459147	0.001773
 1611.32400	1.459505	0.001767
 1612.54500	1.459863	0.001761
 1613.76500	1.460219	0.001754
 1614.98600	1.460574	0.001748
 1616.20700	1.460927	0.001742
 1617.42700	1.461280	0.001736
 1618.64800	1.461631	0.001730
 1619.86900	1.461981	0.001723
 1621.09000	1.462329	0.001717
 1622.31000	1.462676	0.001711
 1623.53100	1.463022	0.001705
 1624.75200	1.463367	0.001700
 1625.97200	1.463711	0.001693
 1627.19300	1.464053	0.001688
 1628.41400	1.464394	0.001682
 1629.63400	1.464734	0.001676
 1630.85500	1.465073	0.001670
 1632.07600	1.465410	0.001664
 1633.29700	1.465747	0.001659
 1634.51700	1.466082	0.001653
 1635.73800	1.466416	0.001647
 1636.95900	1.466749	0.001642
 1638.17900	1.467080	0.001636
 1639.40000	1.467411	0.001630
 1640.62100	1.467740	0.001625
 1641.84100	1.468068	0.001619
 1643.06200	1.468395	0.001614
 1644.28300	1.468721	0.001608
 1645.50400	1.469046	0.001603
 1646.72400	1.469370	0.001597
 1647.94500	1.469692	0.001592
 1649.16600	1.470014	0.001586
 1650.38600	1.470334	0.001581
 1651.60700	1.470653	0.001576
 1652.82800	1.470971	0.001570
 1654.04800	1.471288	0.001565
 1655.26900	1.471604	0.001560
 1656.49000	1.471919	0.001555
 1657.71100	1.472233	0.001550
 1658.93100	1.472546	0.001544
 1660.15200	1.472857	0.001539
 1661.37300	1.473168	0.001534
 1662.59300	1.473478	0.001529
 1663.81400	1.473786	0.001524
 1665.03500	1.474093	0.001519
 1666.25500	1.474400	0.001514
 1667.47600	1.474705	0.001509
 1668.69700	1.475010	0.001504
 1669.91800	1.475313	0.001499
 1671.13800	1.475616	0.001494
 1672.35900	1.475917	0.001489
 1673.58000	1.476217	0.001484
 1674.80000	1.476516	0.001479
 1676.02100	1.476815	0.001475
 1677.24200	1.477112	0.001470
 1678.46200	1.477409	0.001465
 1679.68300	1.477704	0.001460
 1680.90400	1.477998	0.001456
 1682.12500	1.478292	0.001451
 1683.34500	1.478584	0.001446
 1684.56600	1.478876	0.001442
 1685.78700	1.479166	0.001437
 1687.00700	1.479456	0.001432
 1688.22800	1.479744	0.001428
 1689.44900	1.480032	0.001423
 1690.66900	1.480319	0.001419
 1691.89000	1.480605	0.001414
 1693.11100	1.480890	0.001410
 1694.33200	1.481174	0.001405
 1695.55200	1.481457	0.001401
 1696.77300	1.481739	0.001396
 1697.99400	1.482020	0.001392
 1699.21400	1.482300	0.001387
 1700.43500	1.482580	0.001383
 1701.65600	1.482858	0.001379
 1702.87600	1.483136	0.001374
 1704.09700	1.483413	0.001370
 1705.31800	1.483689	0.001366
 1706.53900	1.483963	0.001361
 1707.75900	1.484238	0.001357
 1708.98000	1.484511	0.001353
 1710.20100	1.484783	0.001349
 1711.42100	1.485055	0.001344
 1712.64200	1.485325	0.001340
 1713.86300	1.485595	0.001336
 1715.08300	1.485864	0.001332
 1716.30400	1.486132	0.001328
 1717.52500	1.486399	0.001324
 1718.74600	1.486666	0.001320
 1719.96600	1.486931	0.001316
 1721.18700	1.487196	0.001311
 1722.40800	1.487460	0.001307
 1723.62800	1.487723	0.001303
 1724.84900	1.487985	0.001299
 1726.07000	1.488246	0.001295
 1727.29000	1.488507	0.001291
 1728.51100	1.488767	0.001288
 1729.73200	1.489026	0.001284
 1730.95300	1.489284	0.001280
 1732.17300	1.489541	0.001276
 1733.39400	1.489798	0.001272
 1734.61500	1.490054	0.001268
 1735.83500	1.490309	0.001264
 1737.05600	1.490563	0.001260
 1738.27700	1.490816	0.001257
 1739.49700	1.491069	0.001253
 1740.71800	1.491321	0.001249
 1741.93900	1.491572	0.001245
 1743.16000	1.491822	0.001242
 1744.38000	1.492072	0.001238
 1745.60100	1.492320	0.001234
 1746.82200	1.492568	0.001230
 1748.04200	1.492816	0.001227
 1749.26300	1.493062	0.001223
 1750.48400	1.493308	0.001219
 1751.70400	1.493553	0.001216
 1752.92500	1.493797	0.001212
 1754.14600	1.494041	0.001209
 1755.36700	1.494284	0.001205
 1756.58700	1.494526	0.001201
 1757.80800	1.494767	0.001198
 1759.02900	1.495008	0.001194
 1760.24900	1.495248	0.001191
 1761.47000	1.495487	0.001187
 1762.69100	1.495726	0.001184
 1763.91100	1.495963	0.001180
 1765.13200	1.496200	0.001177
 1766.35300	1.496437	0.001173
 1767.57400	1.496672	0.001170
 1768.79400	1.496907	0.001167
 1770.01500	1.497142	0.001163
 1771.23600	1.497375	0.001160
 1772.45600	1.497608	0.001156
 1773.67700	1.497840	0.001153
 1774.89800	1.498072	0.001150
 1776.11800	1.498303	0.001146
 1777.33900	1.498533	0.001143
 1778.56000	1.498762	0.001140
 1779.78100	1.498991	0.001137
 1781.00100	1.499219	0.001133
 1782.22200	1.499447	0.001130
 1783.44300	1.499673	0.001127
 1784.66300	1.499900	0.001124
 1785.88400	1.500125	0.001120
 1787.10500	1.500350	0.001117
 1788.32500	1.500574	0.001114
 1789.54600	1.500798	0.001111
 1790.76700	1.501020	0.001108
 1791.98800	1.501243	0.001104
 1793.20800	1.501464	0.001101
 1794.42900	1.501685	0.001098
 1795.65000	1.501905	0.001095
 1796.87000	1.502125	0.001092
 1798.09100	1.502344	0.001089
 1799.31200	1.502563	0.001086
 1800.53200	1.502780	0.001083
 1801.75300	1.502998	0.001080
 1802.97400	1.503214	0.001077
 1804.19500	1.503430	0.001074
 1805.41500	1.503645	0.001071
 1806.63600	1.503860	0.001068
 1807.85700	1.504074	0.001065
 1809.07700	1.504287	0.001062
 1810.29800	1.504500	0.001059
 1811.51900	1.504713	0.001056
 1812.73900	1.504924	0.001053
 1813.96000	1.505135	0.001050
 1815.18100	1.505346	0.001047
 1816.40200	1.505556	0.001044
 1817.62200	1.505765	0.001041
 1818.84300	1.505974	0.001038
 1820.06400	1.506182	0.001035
 1821.28400	1.506389	0.001033
 1822.50500	1.506596	0.001030
 1823.72600	1.506803	0.001027
 1824.94600	1.507008	0.001024
 1826.16700	1.507214	0.001021
 1827.38800	1.507418	0.001018
 1828.60900	1.507622	0.001016
 1829.82900	1.507826	0.001013
 1831.05000	1.508029	0.001010
 1832.27100	1.508231	0.001007
 1833.49100	1.508433	0.001005
 1834.71200	1.508634	0.001002
 1835.93300	1.508835	0.000999
 1837.15300	1.509035	0.000997
 1838.37400	1.509235	0.000994
 1839.59500	1.509434	0.000991
 1840.81600	1.509632	0.000988
 1842.03600	1.509830	0.000986
 1843.25700	1.510028	0.000983
 1844.47800	1.510224	0.000980
 1845.69800	1.510421	0.000978
 1846.91900	1.510616	0.000975
 1848.14000	1.510812	0.000973
 1849.36000	1.511006	0.000970
 1850.58100	1.511201	0.000967
 1851.80200	1.511394	0.000965
 1853.02300	1.511587	0.000962
 1854.24300	1.511780	0.000960
 1855.46400	1.511972	0.000957
 1856.68500	1.512164	0.000954
 1857.90500	1.512355	0.000952
 1859.12600	1.512545	0.000949
 1860.34700	1.512735	0.000947
 1861.56700	1.512925	0.000944
 1862.78800	1.513114	0.000942
 1864.00900	1.513302	0.000939
 1865.23000	1.513490	0.000937
 1866.45000	1.513678	0.000935
 1867.67100	1.513865	0.000932
 1868.89200	1.514051	0.000930
 1870.11200	1.514237	0.000927
 1871.33300	1.514423	0.000925
 1872.55400	1.514608	0.000922
 1873.77400	1.514792	0.000920
 1874.99500	1.514976	0.000917
 1876.21600	1.515160	0.000915
 1877.43700	1.515343	0.000913
 1878.65700	1.515525	0.000910
 1879.87800	1.515707	0.000908
 1881.09900	1.515889	0.000906
 1882.31900	1.516070	0.000903
 1883.54000	1.516251	0.000901
 1884.76100	1.516431	0.000898
 1885.98100	1.516611	0.000896
 1887.20200	1.516790	0.000894
 1888.42300	1.516969	0.000892
 1889.64400	1.517147	0.000889
 1890.86400	1.517325	0.000887
 1892.08500	1.517502	0.000885
 1893.30600	1.517679	0.000882
 1894.52600	1.517855	0.000880
 1895.74700	1.518031	0.000878
 1896.96800	1.518207	0.000876
 1898.18800	1.518382	0.000873
 1899.40900	1.518556	0.000871
 1900.63000	1.518731	0.000869
 1901.85100	1.518904	0.000867
 1903.07100	1.519078	0.000865
 1904.29200	1.519250	0.000862
 1905.51300	1.519423	0.000860
 1906.73300	1.519595	0.000858
 1907.95400	1.519766	0.000856
 1909.17500	1.519937	0.000854
 1910.39500	1.520108	0.000851
 1911.61600	1.520278	0.000849
 1912.83700	1.520447	0.000847
 1914.05800	1.520617	0.000845
 1915.27800	1.520786	0.000843
 1916.49900	1.520954	0.000841
 1917.72000	1.521122	0.000839
 1918.94000	1.521289	0.000837
 1920.16100	1.521457	0.000834
 1921.38200	1.521623	0.000832
 1922.60200	1.521790	0.000830
 1923.82300	1.521955	0.000828
 1925.04400	1.522121	0.000826
 1926.26500	1.522286	0.000824
 1927.48500	1.522450	0.000822
 1928.70600	1.522615	0.000820
 1929.92700	1.522778	0.000818
 1931.14700	1.522942	0.000816
 1932.36800	1.523105	0.000814
 1933.58900	1.523267	0.000812
 1934.80900	1.523429	0.000810
 1936.03000	1.523591	0.000808
 1937.25100	1.523752	0.000806
 1938.47200	1.523913	0.000804
 1939.69200	1.524074	0.000802
 1940.91300	1.524234	0.000800
 1942.13400	1.524393	0.000798
 1943.35400	1.524553	0.000796
 1944.57500	1.524712	0.000794
 1945.79600	1.524870	0.000792
 1947.01600	1.525028	0.000790
 1948.23700	1.525186	0.000788
 1949.45800	1.525343	0.000786
 1950.67900	1.525500	0.000784
 1951.89900	1.525657	0.000782
 1953.12000	1.525813	0.000781
 1954.34100	1.525969	0.000779
 1955.56100	1.526124	0.000777
 1956.78200	1.526279	0.000775
 1958.00300	1.526434	0.000773
 1959.22300	1.526588	0.000771
 1960.44400	1.526742	0.000769
 1961.66500	1.526895	0.000767
 1962.88600	1.527049	0.000766
 1964.10600	1.527201	0.000764
 1965.32700	1.527354	0.000762
 1966.54800	1.527506	0.000760
 1967.76800	1.527657	0.000758
 1968.98900	1.527809	0.000756
 1970.21000	1.527959	0.000754
 1971.43000	1.528110	0.000753
 1972.65100	1.528260	0.000751
 1973.87200	1.528410	0.000749
 1975.09300	1.528559	0.000747
 1976.31300	1.528708	0.000745
 1977.53400	1.528857	0.000744
 1978.75500	1.529005	0.000742
 1979.97500	1.529153	0.000740
 1981.19600	1.529301	0.000738
 1982.41700	1.529448	0.000737
 1983.63700	1.529595	0.000735
 1984.85800	1.529742	0.000733
 1986.07900	1.529888	0.000731
 1987.30000	1.530034	0.000730
 1988.52000	1.530179	0.000728
 1989.74100	1.530324	0.000726
 1990.96200	1.530469	0.000725
 1992.18200	1.530614	0.000723
 1993.40300	1.530758	0.000721
 1994.62400	1.530902	0.000720
 1995.84400	1.531045	0.000718
 1997.06500	1.531188	0.000716
 1998.28600	1.531331	0.000714
 1999.50700	1.531473	0.000713
 2000.72700	1.531615	0.000711
 2001.94800	1.531757	0.000709
 2003.16900	1.531898	0.000708
 2004.38900	1.532040	0.000706
 2005.61000	1.532180	0.000704
 2006.83100	1.532321	0.000703
 2008.05100	1.532461	0.000701
 2009.27200	1.532601	0.000699
 2010.49300	1.532740	0.000698
 2011.71400	1.532879	0.000696
 2012.93400	1.533018	0.000695
 2014.15500	1.533156	0.000693
 2015.37600	1.533294	0.000692
 2016.59600	1.533432	0.000690
 2017.81700	1.533570	0.000688
 2019.03800	1.533707	0.000687
 2020.25800	1.533844	0.000685
 2021.47900	1.533980	0.000684
 2022.70000	1.534116	0.000682
 2023.92100	1.534252	0.000680
 2025.14100	1.534388	0.000679
 2026.36200	1.534523	0.000677
 2027.58300	1.534658	0.000676
 2028.80300	1.534792	0.000674
 2030.02400	1.534927	0.000673
 2031.24500	1.535061	0.000671
 2032.46500	1.535194	0.000670
 2033.68600	1.535328	0.000668
 2034.90700	1.535461	0.000667
 2036.12800	1.535593	0.000665
 2037.34800	1.535726	0.000663
 2038.56900	1.535858	0.000662
 2039.79000	1.535990	0.000661
 2041.01000	1.536121	0.000659
 2042.23100	1.536253	0.000658
 2043.45200	1.536384	0.000656
 2044.67200	1.536514	0.000654
 2045.89300	1.536644	0.000653
 2047.11400	1.536775	0.000652
 2048.33500	1.536904	0.000650
 2049.55500	1.537034	0.000649
 2050.77600	1.537163	0.000647
 2051.99700	1.537292	0.000646
 2053.21700	1.537420	0.000644
 2054.43800	1.537549	0.000643
 2055.65900	1.537676	0.000641
 2056.87900	1.537804	0.000640
 2058.10000	1.537932	0.000638
 2059.32100	1.538059	0.000637
 2060.54200	1.538185	0.000636
 2061.76200	1.538312	0.000634
 2062.98300	1.538438	0.000633
 2064.20400	1.538564	0.000631
 2065.42400	1.538690	0.000630
 2066.64500	1.538815	0.000629
 2067.86600	1.538940	0.000627
 2069.08600	1.539065	0.000626
 2070.30700	1.539190	0.000624
 2071.52800	1.539314	0.000623
 2072.74900	1.539438	0.000622
 2073.96900	1.539562	0.000620
 2075.19000	1.539685	0.000619
 2076.41100	1.539808	0.000618
 2077.63100	1.539931	0.000616
 2078.85200	1.540054	0.000615
 2080.07300	1.540176	0.000614
 2081.29300	1.540298	0.000612
 2082.51400	1.540420	0.000611
 2083.73500	1.540542	0.000609
 2084.95600	1.540663	0.000608
 2086.17600	1.540784	0.000607
 2087.39700	1.540905	0.000606
 2088.61800	1.541025	0.000604
 2089.83800	1.541145	0.000603
 2091.05900	1.541265	0.000601
 2092.28000	1.541385	0.000600
 2093.50000	1.541504	0.000599
 2094.72100	1.541623	0.000598
 2095.94200	1.541742	0.000596
 2097.16300	1.541861	0.000595
 2098.38300	1.541979	0.000594
 2099.60400	1.542097	0.000592
 2100.82500	1.542215	0.000591
 2102.04500	1.542333	0.000590
 2103.26600	1.542450	0.000589
 2104.48700	1.542567	0.000587
 2105.70700	1.542684	0.000586
 2106.92800	1.542800	0.000585
 2108.14900	1.542917	0.000584
 2109.37000	1.543033	0.000582
 2110.59000	1.543148	0.000581
 2111.81100	1.543264	0.000580
 2113.03200	1.543379	0.000578
 2114.25200	1.543494	0.000577
 2115.47300	1.543609	0.000576
 2116.69400	1.543724	0.000575
 2117.91400	1.543838	0.000574
 2119.13500	1.543952	0.000572
 2120.35600	1.544066	0.000571
 2121.57700	1.544179	0.000570
 2122.79700	1.544293	0.000569
 2124.01800	1.544406	0.000568
 2125.23900	1.544518	0.000566
 2126.45900	1.544631	0.000565
 2127.68000	1.544743	0.000564
 2128.90100	1.544855	0.000563
 2130.12100	1.544967	0.000562
 2131.34200	1.545079	0.000560
 2132.56300	1.545190	0.000559
 2133.78400	1.545301	0.000558
 2135.00400	1.545412	0.000557
 2136.22500	1.545523	0.000556
 2137.44600	1.545633	0.000554
 2138.66600	1.545743	0.000553
 2139.88700	1.545853	0.000552
 2141.10800	1.545963	0.000551
 2142.32800	1.546072	0.000550
 2143.54900	1.546182	0.000549
 2144.77000	1.546291	0.000547
 2145.99100	1.546400	0.000546
 2147.21100	1.546508	0.000545
 2148.43200	1.546616	0.000544
 2149.65300	1.546725	0.000543
 2150.87300	1.546832	0.000542
 2152.09400	1.546940	0.000541
 2153.31500	1.547047	0.000539
 2154.53500	1.547155	0.000538
 2155.75600	1.547261	0.000537
 2156.97700	1.547368	0.000536
 2158.19800	1.547475	0.000535
 2159.41800	1.547581	0.000534
 2160.63900	1.547687	0.000533
 2161.86000	1.547793	0.000532
 2163.08000	1.547899	0.000531
 2164.30100	1.548004	0.000530
 2165.52200	1.548109	0.000528
 2166.74200	1.548214	0.000527
 2167.96300	1.548319	0.000526
 2169.18400	1.548423	0.000525
 2170.40500	1.548528	0.000524
 2171.62500	1.548632	0.000523
 2172.84600	1.548735	0.000522
 2174.06700	1.548839	0.000521
 2175.28700	1.548943	0.000520
 2176.50800	1.549046	0.000519
 2177.72900	1.549149	0.000518
 2178.94900	1.549252	0.000517
 2180.17000	1.549354	0.000516
 2181.39100	1.549457	0.000515
 2182.61200	1.549559	0.000513
 2183.83200	1.549661	0.000512
 2185.05300	1.549762	0.000511
 2186.27400	1.549864	0.000510
 2187.49400	1.549965	0.000509
 2188.71500	1.550066	0.000508
 2189.93600	1.550167	0.000507
 2191.15600	1.550268	0.000506
 2192.37700	1.550368	0.000505
 2193.59800	1.550469	0.000504
 2194.81900	1.550569	0.000503
 2196.03900	1.550669	0.000502
 2197.26000	1.550768	0.000501
 2198.48100	1.550868	0.000500
 2199.70100	1.550967	0.000499
 2200.92200	1.551066	0.000498
 2202.14300	1.551165	0.000497
 2203.36300	1.551264	0.000496
 2204.58400	1.551362	0.000495
 2205.80500	1.551460	0.000494
 2207.02600	1.551558	0.000493
 2208.24600	1.551656	0.000492
 2209.46700	1.551754	0.000491
 2210.68800	1.551851	0.000490
 2211.90800	1.551948	0.000489
 2213.12900	1.552045	0.000488
 2214.35000	1.552142	0.000487
 2215.57000	1.552239	0.000486
 2216.79100	1.552336	0.000485
 2218.01200	1.552432	0.000484
 2219.23300	1.552528	0.000483
 2220.45300	1.552624	0.000482
 2221.67400	1.552719	0.000481
 2222.89500	1.552815	0.000480
 2224.11500	1.552910	0.000479
 2225.33600	1.553005	0.000478
 2226.55700	1.553100	0.000477
 2227.77700	1.553195	0.000476
 2228.99800	1.553290	0.000476
 2230.21900	1.553384	0.000475
 2231.44000	1.553478	0.000474
 2232.66000	1.553572	0.000473
 2233.88100	1.553666	0.000472
 2235.10200	1.553759	0.000471
 2236.32200	1.553853	0.000470
 2237.54300	1.553946	0.000469
 2238.76400	1.554039	0.000468
 2239.98400	1.554132	0.000467
 2241.20500	1.554225	0.000466
 2242.42600	1.554317	0.000465
 2243.64700	1.554410	0.000464
 2244.86700	1.554502	0.000464
 2246.08800	1.554594	0.000463
 2247.30900	1.554685	0.000462
 2248.52900	1.554777	0.000461
 2249.75000	1.554868	0.000460
 2250.97100	1.554960	0.000459
 2252.19100	1.555050	0.000458
 2253.41200	1.555141	0.000457
 2254.63300	1.555232	0.000456
 2255.85400	1.555323	0.000456
 2257.07400	1.555413	0.000455
 2258.29500	1.555503	0.000454
 2259.51600	1.555593	0.000453
 2260.73600	1.555683	0.000452
 2261.95700	1.555772	0.000451
 2263.17800	1.555862	0.000450
 2264.39800	1.555951	0.000449
 2265.61900	1.556040	0.000448
 2266.84000	1.556129	0.000448
 2268.06100	1.556218	0.000447
 2269.28100	1.556306	0.000446
 2270.50200	1.556395	0.000445
 2271.72300	1.556483	0.000444
 2272.94300	1.556571	0.000443
 2274.16400	1.556659	0.000442
 2275.38500	1.556747	0.000442
 2276.60500	1.556834	0.000441
 2277.82600	1.556922	0.000440
 2279.04700	1.557009	0.000439
 2280.26800	1.557096	0.000438
 2281.48800	1.557183	0.000437
 2282.70900	1.557269	0.000437
 2283.93000	1.557356	0.000436
 2285.15000	1.557442	0.000435
 2286.37100	1.557528	0.000434
 2287.59200	1.557614	0.000433
 2288.81200	1.557700	0.000432
 2290.03300	1.557786	0.000431
 2291.25400	1.557872	0.000431
 2292.47500	1.557957	0.000430
 2293.69500	1.558042	0.000429
 2294.91600	1.558127	0.000428
 2296.13700	1.558212	0.000427
 2297.35700	1.558297	0.000427
 2298.57800	1.558381	0.000426
 2299.79900	1.558466	0.000425
 2301.01900	1.558550	0.000424
 2302.24000	1.558634	0.000423
 2303.46100	1.558718	0.000423
 2304.68200	1.558802	0.000422
 2305.90200	1.558885	0.000421
 2307.12300	1.558969	0.000420
 2308.34400	1.559052	0.000419
 2309.56400	1.559135	0.000419
 2310.78500	1.559218	0.000418
 2312.00600	1.559301	0.000417
 2313.22600	1.559384	0.000416
 2314.44700	1.559466	0.000415
 2315.66800	1.559548	0.000415
 2316.88900	1.559630	0.000414
 2318.10900	1.559712	0.000413
 2319.33000	1.559794	0.000412
 2320.55100	1.559876	0.000412
 2321.77100	1.559958	0.000411
 2322.99200	1.560039	0.000410
 2324.21300	1.560120	0.000409
 2325.43300	1.560201	0.000409
 2326.65400	1.560282	0.000408
 2327.87500	1.560363	0.000407
 2329.09600	1.560444	0.000406
 2330.31600	1.560524	0.000406
 2331.53700	1.560604	0.000405
 2332.75800	1.560685	0.000404
 2333.97800	1.560765	0.000403
 2335.19900	1.560845	0.000403
 2336.42000	1.560924	0.000402
 2337.64000	1.561004	0.000401
 2338.86100	1.561083	0.000400
 2340.08200	1.561163	0.000400
 2341.30300	1.561242	0.000399
 2342.52300	1.561321	0.000398
 2343.74400	1.561399	0.000397
 2344.96500	1.561478	0.000397
 2346.18500	1.561557	0.000396
 2347.40600	1.561635	0.000395
 2348.62700	1.561713	0.000394
 2349.84700	1.561792	0.000394
 2351.06800	1.561870	0.000393
 2352.28900	1.561947	0.000392
 2353.51000	1.562025	0.000392
 2354.73000	1.562103	0.000391
 2355.95100	1.562180	0.000390
 2357.17200	1.562257	0.000389
 2358.39200	1.562334	0.000389
 2359.61300	1.562411	0.000388
 2360.83400	1.562488	0.000387
 2362.05400	1.562565	0.000387
 2363.27500	1.562641	0.000386
 2364.49600	1.562718	0.000385
 2365.71700	1.562794	0.000384
 2366.93700	1.562870	0.000384
 2368.15800	1.562946	0.000383
 2369.37900	1.563022	0.000382
 2370.59900	1.563098	0.000382
 2371.82000	1.563173	0.000381
 2373.04100	1.563249	0.000380
 2374.26100	1.563324	0.000380
 2375.48200	1.563399	0.000379
 2376.70300	1.563474	0.000378
 2377.92400	1.563549	0.000378
 2379.14400	1.563624	0.000377
 2380.36500	1.563698	0.000376
 2381.58600	1.563773	0.000376
 2382.80600	1.563847	0.000375
 2384.02700	1.563921	0.000374
 2385.24800	1.563995	0.000373
 2386.46800	1.564069	0.000373
 2387.68900	1.564143	0.000372
 2388.91000	1.564217	0.000372
 2390.13100	1.564290	0.000371
 2391.35100	1.564364	0.000370
 2392.57200	1.564437	0.000369
 2393.79300	1.564510	0.000369
 2395.01300	1.564583	0.000368
 2396.23400	1.564656	0.000368
 2397.45500	1.564728	0.000367
 2398.67500	1.564801	0.000366
 2399.89600	1.564874	0.000365
 2401.11700	1.564946	0.000365
 2402.33800	1.565018	0.000364
 2403.55800	1.565090	0.000364
 2404.77900	1.565162	0.000363
 2406.00000	1.565234	0.000362
 2407.22000	1.565306	0.000362
 2408.44100	1.565377	0.000361
 2409.66200	1.565449	0.000360
 2410.88200	1.565520	0.000360
 2412.10300	1.565591	0.000359
 2413.32400	1.565662	0.000358
 2414.54500	1.565733	0.000358
 2415.76500	1.565804	0.000357
 2416.98600	1.565875	0.000357
 2418.20700	1.565945	0.000356
 2419.42700	1.566015	0.000355
 2420.64800	1.566086	0.000355
 2421.86900	1.566156	0.000354
 2423.08900	1.566226	0.000353
 2424.31000	1.566296	0.000353
 2425.53100	1.566366	0.000352
 2426.75200	1.566435	0.000352
 2427.97200	1.566505	0.000351
 2429.19300	1.566574	0.000350
 2430.41400	1.566644	0.000350
 2431.63400	1.566713	0.000349
 2432.85500	1.566782	0.000349
 2434.07600	1.566851	0.000348
 2435.29600	1.566920	0.000347
 2436.51700	1.566988	0.000347
 2437.73800	1.567057	0.000346
 2438.95900	1.567125	0.000346
 2440.17900	1.567194	0.000345
 2441.40000	1.567262	0.000344
 2442.62100	1.567330	0.000344
 2443.84100	1.567398	0.000343
 2445.06200	1.567466	0.000342
 2446.28300	1.567533	0.000342
 2447.50300	1.567601	0.000341
 2448.72400	1.567669	0.000341
 2449.94500	1.567736	0.000340
 2451.16600	1.567803	0.000339
 2452.38600	1.567870	0.000339
 2453.60700	1.567937	0.000338
 2454.82800	1.568004	0.000338
 2456.04800	1.568071	0.000337
 2457.26900	1.568138	0.000337
 2458.49000	1.568204	0.000336
 2459.71000	1.568271	0.000335
 2460.93100	1.568337	0.000335
 2462.15200	1.568403	0.000334
 2463.37300	1.568469	0.000334
 2464.59300	1.568535	0.000333
 2465.81400	1.568601	0.000332
 2467.03500	1.568667	0.000332
 2468.25500	1.568733	0.000331
 2469.47600	1.568798	0.000331
 2470.69700	1.568864	0.000330
 2471.91700	1.568929	0.000330
 2473.13800	1.568994	0.000329
 2474.35900	1.569059	0.000329
 2475.58000	1.569124	0.000328
 2476.80000	1.569189	0.000327
 2478.02100	1.569254	0.000327
 2479.24200	1.569318	0.000326
 2480.46200	1.569383	0.000326
 2481.68300	1.569447	0.000325
 2482.90400	1.569511	0.000325
 2484.12400	1.569576	0.000324
 2485.34500	1.569640	0.000323
 2486.56600	1.569704	0.000323
 2487.78700	1.569767	0.000322
 2489.00700	1.569831	0.000322
 2490.22800	1.569895	0.000321
 2491.44900	1.569958	0.000321
 2492.66900	1.570022	0.000320
 2493.89000	1.570085	0.000320
 2495.11100	1.570148	0.000319
 2496.33100	1.570211	0.000319
 2497.55200	1.570274	0.000318
 2498.77300	1.570337	0.000318
 2499.99400	1.570400	0.000317
 2501.21400	1.570463	0.000316
 2502.43500	1.570525	0.000316
 2503.65600	1.570588	0.000315
 2504.87600	1.570650	0.000315
 2506.09700	1.570712	0.000314
 2507.31800	1.570774	0.000314
 2508.53800	1.570836	0.000313
 2509.75900	1.570898	0.000313
 2510.98000	1.570960	0.000312
 2512.20100	1.571022	0.000312
 2513.42100	1.571083	0.000311
 2514.64200	1.571145	0.000311
 2515.86300	1.571206	0.000310
 2517.08300	1.571268	0.000310
 2518.30400	1.571329	0.000309
 2519.52500	1.571390	0.000309
 2520.74500	1.571451	0.000308
 2521.96600	1.571512	0.000308
 2523.18700	1.571573	0.000307
 2524.40800	1.571633	0.000307
 2525.62800	1.571694	0.000306
 2526.84900	1.571754	0.000305
 2528.07000	1.571815	0.000305
 2529.29000	1.571875	0.000304
 2530.51100	1.571935	0.000304
 2531.73200	1.571995	0.000304
 2532.95200	1.572055	0.000303
 2534.17300	1.572115	0.000303
 2535.39400	1.572175	0.000302
 2536.61500	1.572235	0.000301
 2537.83500	1.572294	0.000301
 2539.05600	1.572353	0.000300
 2540.27700	1.572413	0.000300
 2541.49700	1.572472	0.000300
 2542.71800	1.572531	0.000299
 2543.93900	1.572590	0.000299
 2545.15900	1.572649	0.000298
 2546.38000	1.572708	0.000297
 2547.60100	1.572767	0.000297
 2548.82200	1.572826	0.000297
 2550.04200	1.572884	0.000296
 2551.26300	1.572943	0.000296
 2552.48400	1.573001	0.000295
 2553.70400	1.573059	0.000295
 2554.92500	1.573118	0.000294
 2556.14600	1.573176	0.000294
 2557.36600	1.573234	0.000293
 2558.58700	1.573292	0.000293
 2559.80800	1.573349	0.000292
 2561.02900	1.573407	0.000292
 2562.24900	1.573465	0.000291
 2563.47000	1.573522	0.000291
 2564.69100	1.573580	0.000290
 2565.91100	1.573637	0.000290
 2567.13200	1.573694	0.000289
 2568.35300	1.573752	0.000289
 2569.57300	1.573809	0.000288
 2570.79400	1.573866	0.000288
 2572.01500	1.573922	0.000288
 2573.23600	1.573979	0.000287
 2574.45600	1.574036	0.000287
 2575.67700	1.574093	0.000286
 2576.89800	1.574149	0.000286
 2578.11800	1.574205	0.000285
 2579.33900	1.574262	0.000285
 2580.56000	1.574318	0.000284
 2581.78000	1.574374	0.000284
 2583.00100	1.574430	0.000283
 2584.22200	1.574486	0.000283
 2585.44300	1.574542	0.000282
 2586.66300	1.574598	0.000282
 2587.88400	1.574653	0.000281
 2589.10500	1.574709	0.000281
 2590.32500	1.574764	0.000281
 2591.54600	1.574820	0.000280
 2592.76700	1.574875	0.000280
 2593.98700	1.574930	0.000279
 2595.20800	1.574986	0.000279
 2596.42900	1.575041	0.000278
 2597.65000	1.575096	0.000278
 2598.87000	1.575150	0.000277
 2600.09100	1.575205	0.000277
 2601.31200	1.575260	0.000277
 2602.53200	1.575314	0.000276
 2603.75300	1.575369	0.000276
 2604.97400	1.575423	0.000275
 2606.19400	1.575478	0.000275
 2607.41500	1.575532	0.000274
 2608.63600	1.575586	0.000274
 2609.85700	1.575640	0.000273
 2611.07700	1.575694	0.000273
 2612.29800	1.575748	0.000273
 2613.51900	1.575802	0.000272
 2614.73900	1.575856	0.000272
 2615.96000	1.575909	0.000271
 2617.18100	1.575963	0.000271
 2618.40100	1.576016	0.000270
 2619.62200	1.576070	0.000270
 2620.84300	1.576123	0.000270
 2622.06400	1.576176	0.000269
 2623.28400	1.576229	0.000269
 2624.50500	1.576283	0.000268
 2625.72600	1.576335	0.000268
 2626.94600	1.576388	0.000267
 2628.16700	1.576441	0.000267
 2629.38800	1.576494	0.000267
 2630.60800	1.576546	0.000266
 2631.82900	1.576599	0.000266
 2633.05000	1.576651	0.000265
 2634.27100	1.576704	0.000265
 2635.49100	1.576756	0.000265
 2636.71200	1.576808	0.000264
 2637.93300	1.576860	0.000264
 2639.15300	1.576913	0.000263
 2640.37400	1.576964	0.000263
 2641.59500	1.577016	0.000262
 2642.81500	1.577068	0.000262
 2644.03600	1.577120	0.000262
 2645.25700	1.577171	0.000261
 2646.47800	1.577223	0.000261
 2647.69800	1.577274	0.000260
 2648.91900	1.577326	0.000260
 2650.14000	1.577377	0.000260
 2651.36000	1.577428	0.000259
 2652.58100	1.577479	0.000259
 2653.80200	1.577531	0.000258
 2655.02200	1.577582	0.000258
 2656.24300	1.577633	0.000258
 2657.46400	1.577683	0.000257
 2658.68500	1.577734	0.000257
 2659.90500	1.577785	0.000256
 2661.12600	1.577835	0.000256
 2662.34700	1.577886	0.000256
 2663.56700	1.577936	0.000255
 2664.78800	1.577987	0.000255
 2666.00900	1.578037	0.000254
 2667.22900	1.578087	0.000254
 2668.45000	1.578137	0.000254
 2669.67100	1.578187	0.000253
 2670.89200	1.578237	0.000253
 2672.11200	1.578287	0.000252
 2673.33300	1.578337	0.000252
 2674.55400	1.578387	0.000252
 2675.77400	1.578436	0.000251
 2676.99500	1.578486	0.000251
 2678.21600	1.578535	0.000250
 2679.43600	1.578585	0.000250
 2680.65700	1.578634	0.000250
 2681.87800	1.578683	0.000249
 2683.09900	1.578732	0.000249
 2684.31900	1.578782	0.000249
 2685.54000	1.578831	0.000248
 2686.76100	1.578880	0.000248
 2687.98100	1.578928	0.000247
 2689.20200	1.578977	0.000247
 2690.42300	1.579026	0.000247
 2691.64300	1.579075	0.000246
 2692.86400	1.579123	0.000246
 2694.08500	1.579172	0.000246
 2695.30600	1.579220	0.000245
 2696.52600	1.579268	0.000245
 2697.74700	1.579317	0.000244
 2698.96800	1.579365	0.000244
 2700.18800	1.579413	0.000244
 2701.40900	1.579461	0.000243
 2702.63000	1.579509	0.000243
 2703.85000	1.579557	0.000242
 2705.07100	1.579605	0.000242
 2706.29200	1.579653	0.000242
 2707.51300	1.579700	0.000241
 2708.73300	1.579748	0.000241
 2709.95400	1.579796	0.000241
 2711.17500	1.579843	0.000240
 2712.39500	1.579890	0.000240
 2713.61600	1.579938	0.000240
 2714.83700	1.579985	0.000239
 2716.05700	1.580032	0.000239
 2717.27800	1.580079	0.000238
 2718.49900	1.580126	0.000238
 2719.72000	1.580173	0.000238
 2720.94000	1.580220	0.000237
 2722.16100	1.580267	0.000237
 2723.38200	1.580314	0.000237
 2724.60200	1.580360	0.000236
 2725.82300	1.580407	0.000236
 2727.04400	1.580454	0.000236
 2728.26400	1.580500	0.000235
 2729.48500	1.580546	0.000235
 2730.70600	1.580593	0.000235
 2731.92700	1.580639	0.000234
 2733.14700	1.580685	0.000234
 2734.36800	1.580731	0.000234
 2735.58900	1.580777	0.000233
 2736.80900	1.580823	0.000233
 2738.03000	1.580869	0.000232
 2739.25100	1.580915	0.000232
 2740.47100	1.580961	0.000232
 2741.69200	1.581007	0.000231
 2742.91300	1.581052	0.000231
 2744.13400	1.581098	0.000231
 2745.35400	1.581143	0.000230
 2746.57500	1.581189	0.000230
 2747.79600	1.581234	0.000230
 2749.01600	1.581279	0.000229
 2750.23700	1.581325	0.000229
 2751.45800	1.581370	0.000229
 2752.67800	1.581415	0.000228
 2753.89900	1.581460	0.000228
 2755.12000	1.581505	0.000228
 2756.34100	1.581550	0.000227
 2757.56100	1.581594	0.000227
 2758.78200	1.581639	0.000227
 2760.00300	1.581684	0.000226
 2761.22300	1.581729	0.000226
 2762.44400	1.581773	0.000226
 2763.66500	1.581818	0.000225
 2764.88500	1.581862	0.000225
 2766.10600	1.581906	0.000225
 2767.32700	1.581951	0.000224
 2768.54800	1.581995	0.000224
 2769.76800	1.582039	0.000224
 2770.98900	1.582083	0.000223
 2772.21000	1.582127	0.000223
 2773.43000	1.582171	0.000223
 2774.65100	1.582215	0.000222
 2775.87200	1.582259	0.000222
 2777.09200	1.582302	0.000222
 2778.31300	1.582346	0.000221
 2779.53400	1.582390	0.000221
 2780.75500	1.582433	0.000221
 2781.97500	1.582477	0.000220
 2783.19600	1.582520	0.000220
 2784.41700	1.582564	0.000220
 2785.63700	1.582607	0.000219
 2786.85800	1.582650	0.000219
 2788.07900	1.582693	0.000219
 2789.29900	1.582737	0.000218
 2790.52000	1.582780	0.000218
 2791.74100	1.582823	0.000218
 2792.96200	1.582866	0.000217
 2794.18200	1.582908	0.000217
 2795.40300	1.582951	0.000217
 2796.62400	1.582994	0.000217
 2797.84400	1.583037	0.000216
 2799.06500	1.583079	0.000216
 2800.28600	1.583122	0.000216
 2801.50600	1.583164	0.000215
 2802.72700	1.583207	0.000215
 2803.94800	1.583249	0.000215
 2805.16900	1.583291	0.000214
 2806.38900	1.583334	0.000214
 2807.61000	1.583376	0.000214
 2808.83100	1.583418	0.000213
 2810.05100	1.583460	0.000213
 2811.27200	1.583502	0.000213
 2812.49300	1.583544	0.000212
 2813.71300	1.583586	0.000212
 2814.93400	1.583628	0.000212
 2816.15500	1.583669	0.000211
 2817.37600	1.583711	0.000211
 2818.59600	1.583753	0.000211
 2819.81700	1.583794	0.000211
 2821.03800	1.583836	0.000210
 2822.25800	1.583877	0.000210
 2823.47900	1.583918	0.000210
 2824.70000	1.583960	0.000209
 2825.92000	1.584001	0.000209
 2827.14100	1.584042	0.000209
 2828.36200	1.584083	0.000209
 2829.58300	1.584124	0.000208
 2830.80300	1.584166	0.000208
 2832.02400	1.584206	0.000208
 2833.24500	1.584247	0.000207
 2834.46500	1.584288	0.000207
 2835.68600	1.584329	0.000207
 2836.90700	1.584370	0.000206
 2838.12700	1.584410	0.000206
 2839.34800	1.584451	0.000206
 2840.56900	1.584492	0.000205
 2841.79000	1.584532	0.000205
 2843.01000	1.584573	0.000205
 2844.23100	1.584613	0.000205
 2845.45200	1.584653	0.000204
 2846.67200	1.584693	0.000204
 2847.89300	1.584734	0.000204
 2849.11400	1.584774	0.000204
 2850.33400	1.584814	0.000203
 2851.55500	1.584854	0.000203
 2852.77600	1.584894	0.000203
 2853.99700	1.584934	0.000202
 2855.21700	1.584974	0.000202
 2856.43800	1.585013	0.000202
 2857.65900	1.585053	0.000201
 2858.87900	1.585093	0.000201
 2860.10000	1.585132	0.000201
 2861.32100	1.585172	0.000201
 2862.54100	1.585212	0.000200
 2863.76200	1.585251	0.000200
 2864.98300	1.585291	0.000200
 2866.20400	1.585330	0.000199
 2867.42400	1.585369	0.000199
 2868.64500	1.585408	0.000199
 2869.86600	1.585448	0.000199
 2871.08600	1.585487	0.000198
 2872.30700	1.585526	0.000198
 2873.52800	1.585565	0.000198
 2874.74800	1.585604	0.000198
 2875.96900	1.585643	0.000197
 2877.19000	1.585681	0.000197
 2878.41100	1.585720	0.000197
 2879.63100	1.585759	0.000196
 2880.85200	1.585798	0.000196
 2882.07300	1.585836	0.000196
 2883.29300	1.585875	0.000196
 2884.51400	1.585913	0.000195
 2885.73500	1.585952	0.000195
 2886.95500	1.585990	0.000195
 2888.17600	1.586029	0.000194
 2889.39700	1.586067	0.000194
 2890.61800	1.586105	0.000194
 2891.83800	1.586143	0.000194
 2893.05900	1.586182	0.000193
 2894.28000	1.586220	0.000193
 2895.50000	1.586258	0.000193
 2896.72100	1.586296	0.000192
 2897.94200	1.586334	0.000192
 2899.16200	1.586371	0.000192
 2900.38300	1.586409	0.000192
 2901.60400	1.586447	0.000192
 2902.82500	1.586485	0.000191
 2904.04500	1.586522	0.000191
 2905.26600	1.586560	0.000191
 2906.48700	1.586597	0.000190
 2907.70700	1.586635	0.000190
 2908.92800	1.586672	0.000190
 2910.14900	1.586710	0.000190
 2911.36900	1.586747	0.000189
 2912.59000	1.586784	0.000189
 2913.81100	1.586822	0.000189
 2915.03200	1.586859	0.000189
 2916.25200	1.586896	0.000188
 2917.47300	1.586933	0.000188
 2918.69400	1.586970	0.000188
 2919.91400	1.587007	0.000188
 2921.13500	1.587044	0.000187
 2922.35600	1.587081	0.000187
 2923.57600	1.587118	0.000187
 2924.79700	1.587155	0.000186
 2926.01800	1.587191	0.000186
 2927.23900	1.587228	0.000186
 2928.45900	1.587265	0.000186
 2929.68000	1.587301	0.000186
 2930.90100	1.587338	0.000185
 2932.12100	1.587374	0.000185
 2933.34200	1.587410	0.000185
 2934.56300	1.587447	0.000184
 2935.78300	1.587483	0.000184
 2937.00400	1.587519	0.000184
 2938.22500	1.587556	0.000184
 2939.44600	1.587592	0.000183
 2940.66600	1.587628	0.000183
 2941.88700	1.587664	0.000183
 2943.10800	1.587700	0.000183
 2944.32800	1.587736	0.000182
 2945.54900	1.587772	0.000182
 2946.77000	1.587808	0.000182
 2947.99000	1.587844	0.000182
 2949.21100	1.587879	0.000181
 2950.43200	1.587915	0.000181
 2951.65300	1.587951	0.000181
 2952.87300	1.587986	0.000181
 2954.09400	1.588022	0.000180
 2955.31500	1.588057	0.000180
 2956.53500	1.588093	0.000180
 2957.75600	1.588128	0.000180
 2958.97700	1.588164	0.000179
 2960.19700	1.588199	0.000179
 2961.41800	1.588234	0.000179
 2962.63900	1.588270	0.000179
 2963.86000	1.588305	0.000179
 2965.08000	1.588340	0.000178
 2966.30100	1.588375	0.000178
 2967.52200	1.588410	0.000178
 2968.74200	1.588445	0.000177
 2969.96300	1.588480	0.000177
 2971.18400	1.588515	0.000177
 2972.40400	1.588550	0.000177
 2973.62500	1.588585	0.000177
 2974.84600	1.588619	0.000176
 2976.06700	1.588654	0.000176
 2977.28700	1.588689	0.000176
 2978.50800	1.588723	0.000176
 2979.72900	1.588758	0.000175
 2980.94900	1.588792	0.000175
 2982.17000	1.588827	0.000175
 2983.39100	1.588861	0.000175
 2984.61100	1.588896	0.000174
 2985.83200	1.588930	0.000174
 2987.05300	1.588964	0.000174
 2988.27400	1.588998	0.000174
 2989.49400	1.589033	0.000173
 2990.71500	1.589067	0.000173
 2991.93600	1.589101	0.000173
 2993.15600	1.589135	0.000173
 2994.37700	1.589169	0.000173
 2995.59800	1.589203	0.000172
 2996.81800	1.589237	0.000172
 2998.03900	1.589271	0.000172
 2999.26000	1.589305	0.000172
 3000.48100	1.589338	0.000171
 3001.70100	1.589372	0.000171
 3002.92200	1.589406	0.000171
 3004.14300	1.589439	0.000171
 3005.36300	1.589473	0.000171
 3006.58400	1.589507	0.000170
 3007.80500	1.589540	0.000170
 3009.02500	1.589574	0.000170
 3010.24600	1.589607	0.000170
 3011.46700	1.589640	0.000169
 3012.68800	1.589674	0.000169
 3013.90800	1.589707	0.000169
 3015.12900	1.589740	0.000169
 3016.35000	1.589773	0.000168
 3017.57000	1.589806	0.000168
 3018.79100	1.589840	0.000168
 3020.01200	1.589873	0.000168
 3021.23200	1.589906	0.000167
 3022.45300	1.589939	0.000167
 3023.67400	1.589972	0.000167
 3024.89500	1.590005	0.000167
 3026.11500	1.590037	0.000167
 3027.33600	1.590070	0.000166
 3028.55700	1.590103	0.000166
 3029.77700	1.590136	0.000166
 3030.99800	1.590168	0.000166
 3032.21900	1.590201	0.000165
 3033.43900	1.590233	0.000165
 3034.66000	1.590266	0.000165
 3035.88100	1.590298	0.000165
 3037.10200	1.590331	0.000165
 3038.32200	1.590363	0.000165
 3039.54300	1.590396	0.000164
 3040.76400	1.590428	0.000164
 3041.98400	1.590460	0.000164
 3043.20500	1.590492	0.000164
 3044.42600	1.590525	0.000163
 3045.64600	1.590557	0.000163
 3046.86700	1.590589	0.000163
 3048.08800	1.590621	0.000163
 3049.30900	1.590653	0.000163
 3050.52900	1.590685	0.000162
 3051.75000	1.590717	0.000162
 3052.97100	1.590749	0.000162
 3054.19100	1.590781	0.000162
 3055.41200	1.590813	0.000161
 3056.63300	1.590844	0.000161
 3057.85300	1.590876	0.000161
 3059.07400	1.590908	0.000161
 3060.29500	1.590939	0.000161
 3061.51600	1.590971	0.000160
 3062.73600	1.591003	0.000160
 3063.95700	1.591034	0.000160
 3065.17800	1.591066	0.000160
 3066.39800	1.591097	0.000160
 3067.61900	1.591128	0.000159
 3068.84000	1.591160	0.000159
 3070.06000	1.591191	0.000159
 3071.28100	1.591222	0.000159
 3072.50200	1.591254	0.000158
 3073.72300	1.591285	0.000158
 3074.94300	1.591316	0.000158
 3076.16400	1.591347	0.000158
 3077.38500	1.591378	0.000158
 3078.60500	1.591409	0.000158
 3079.82600	1.591440	0.000157
 3081.04700	1.591471	0.000157
 3082.26700	1.591502	0.000157
 3083.48800	1.591533	0.000157
 3084.70900	1.591564	0.000156
 3085.93000	1.591594	0.000156
 3087.15000	1.591625	0.000156
 3088.37100	1.591656	0.000156
 3089.59200	1.591686	0.000156
 3090.81200	1.591717	0.000156
 3092.03300	1.591748	0.000155
 3093.25400	1.591778	0.000155
 3094.47400	1.591809	0.000155
 3095.69500	1.591839	0.000155
 3096.91600	1.591870	0.000154
 3098.13700	1.591900	0.000154
 3099.35700	1.591930	0.000154
 3100.57800	1.591961	0.000154
 3101.79900	1.591991	0.000154
 3103.01900	1.592021	0.000154
 3104.24000	1.592051	0.000153
 3105.46100	1.592082	0.000153
 3106.68100	1.592112	0.000153
 3107.90200	1.592142	0.000153
 3109.12300	1.592172	0.000152
 3110.34400	1.592202	0.000152
 3111.56400	1.592232	0.000152
 3112.78500	1.592262	0.000152
 3114.00600	1.592291	0.000152
 3115.22600	1.592321	0.000152
 3116.44700	1.592351	0.000151
 3117.66800	1.592381	0.000151
 3118.88800	1.592411	0.000151
 3120.10900	1.592440	0.000151
 3121.33000	1.592470	0.000150
 3122.55100	1.592500	0.000150
 3123.77100	1.592529	0.000150
 3124.99200	1.592559	0.000150
 3126.21300	1.592588	0.000150
 3127.43300	1.592618	0.000150
 3128.65400	1.592647	0.000149
 3129.87500	1.592677	0.000149
 3131.09500	1.592706	0.000149
 3132.31600	1.592735	0.000149
 3133.53700	1.592764	0.000149
 3134.75800	1.592794	0.000148
 3135.97800	1.592823	0.000148
 3137.19900	1.592852	0.000148
 3138.42000	1.592881	0.000148
 3139.64000	1.592910	0.000148
 3140.86100	1.592939	0.000148
 3142.08200	1.592968	0.000147
 3143.30200	1.592997	0.000147
 3144.52300	1.593026	0.000147
 3145.74400	1.593055	0.000147
 3146.96500	1.593084	0.000147
 3148.18500	1.593113	0.000146
 3149.40600	1.593142	0.000146
 3150.62700	1.593170	0.000146
 3151.84700	1.593199	0.000146
 3153.06800	1.593228	0.000146
 3154.28900	1.593256	0.000146
 3155.50900	1.593285	0.000145
 3156.73000	1.593314	0.000145
 3157.95100	1.593342	0.000145
 3159.17200	1.593371	0.000145
 3160.39200	1.593399	0.000145
 3161.61300	1.593428	0.000144
 3162.83400	1.593456	0.000144
 3164.05400	1.593484	0.000144
 3165.27500	1.593513	0.000144
 3166.49600	1.593541	0.000144
 3167.71600	1.593569	0.000144
 3168.93700	1.593597	0.000143
 3170.15800	1.593626	0.000143
 3171.37900	1.593654	0.000143
 3172.59900	1.593682	0.000143
 3173.82000	1.593710	0.000143
 3175.04100	1.593738	0.000142
 3176.26100	1.593766	0.000142
 3177.48200	1.593794	0.000142
 3178.70300	1.593822	0.000142
 3179.92300	1.593850	0.000142
 3181.14400	1.593878	0.000142
 3182.36500	1.593905	0.000141
 3183.58600	1.593933	0.000141
 3184.80600	1.593961	0.000141
 3186.02700	1.593989	0.000141
 3187.24800	1.594016	0.000141
 3188.46800	1.594044	0.000140
 3189.68900	1.594072	0.000140
 3190.91000	1.594099	0.000140
 3192.13000	1.594127	0.000140
 3193.35100	1.594154	0.000140
 3194.57200	1.594182	0.000140
 3195.79300	1.594209	0.000139
 3197.01300	1.594237	0.000139
 3198.23400	1.594264	0.000139
 3199.45500	1.594291	0.000139
 3200.67500	1.594319	0.000139
 3201.89600	1.594346	0.000139
 3203.11700	1.594373	0.000138
 3204.33700	1.594400	0.000138
 3205.55800	1.594427	0.000138
 3206.77900	1.594455	0.000138
 3208.00000	1.594482	0.000138
 3209.22000	1.594509	0.000137
 3210.44100	1.594536	0.000137
 3211.66200	1.594563	0.000137
 3212.88200	1.594590	0.000137
 3214.10300	1.594617	0.000137
 3215.32400	1.594644	0.000137
 3216.54400	1.594671	0.000137
 3217.76500	1.594697	0.000136
 3218.98600	1.594724	0.000136
 3220.20700	1.594751	0.000136
 3221.42700	1.594778	0.000136
 3222.64800	1.594804	0.000136
 3223.86900	1.594831	0.000135
 3225.08900	1.594858	0.000135
 3226.31000	1.594884	0.000135
 3227.53100	1.594911	0.000135
 3228.75100	1.594937	0.000135
 3229.97200	1.594964	0.000135
 3231.19300	1.594990	0.000135
 3232.41400	1.595017	0.000134
 3233.63400	1.595043	0.000134
 3234.85500	1.595070	0.000134
 3236.07600	1.595096	0.000134
 3237.29600	1.595122	0.000134
 3238.51700	1.595149	0.000133
 3239.73800	1.595175	0.000133
 3240.95800	1.595201	0.000133
 3242.17900	1.595227	0.000133
 3243.40000	1.595253	0.000133
 3244.62100	1.595279	0.000133
 3245.84100	1.595306	0.000133
 3247.06200	1.595332	0.000132
 3248.28300	1.595358	0.000132
 3249.50300	1.595384	0.000132
 3250.72400	1.595410	0.000132
 3251.94500	1.595436	0.000132
 3253.16500	1.595461	0.000132
 3254.38600	1.595487	0.000131
 3255.60700	1.595513	0.000131
 3256.82800	1.595539	0.000131
 3258.04800	1.595565	0.000131
 3259.26900	1.595590	0.000131
 3260.49000	1.595616	0.000131
 3261.71000	1.595642	0.000131
 3262.93100	1.595667	0.000130
 3264.15200	1.595693	0.000130
 3265.37200	1.595719	0.000130
 3266.59300	1.595744	0.000130
 3267.81400	1.595770	0.000130
 3269.03500	1.595795	0.000129
 3270.25500	1.595821	0.000129
 3271.47600	1.595846	0.000129
 3272.69700	1.595871	0.000129
 3273.91700	1.595897	0.000129
 3275.13800	1.595922	0.000129
 3276.35900	1.595947	0.000129
 3277.57900	1.595973	0.000128
 3278.80000	1.595998	0.000128
 3280.02100	1.596023	0.000128
 3281.24200	1.596048	0.000128
 3282.46200	1.596074	0.000128
 3283.68300	1.596099	0.000128
 3284.90400	1.596124	0.000127
 3286.12400	1.596149	0.000127
 3287.34500	1.596174	0.000127
 3288.56600	1.596199	0.000127
 3289.78600	1.596224	0.000127
 3291.00700	1.596249	0.000127
 3292.22800	1.596274	0.000127
 3293.44900	1.596298	0.000126
 3294.66900	1.596323	0.000126
 3295.89000	1.596348	0.000126
 3297.11100	1.596373	0.000126
 3298.33100	1.596398	0.000126
 3299.55200	1.596422	0.000126
 3300.77300	1.596447	0.000125
 3301.99300	1.596472	0.000125
 3303.21400	1.596496	0.000125
 3304.43500	1.596521	0.000125
 3305.65600	1.596546	0.000125
 3306.87600	1.596570	0.000125
 3308.09700	1.596595	0.000125
 3309.31800	1.596619	0.000125
 3310.53800	1.596644	0.000124
 3311.75900	1.596668	0.000124
 3312.98000	1.596692	0.000124
 3314.20000	1.596717	0.000124
 3315.42100	1.596741	0.000124
 3316.64200	1.596766	0.000124
 3317.86300	1.596790	0.000123
 3319.08300	1.596814	0.000123
 3320.30400	1.596838	0.000123
 3321.52500	1.596862	0.000123
 3322.74500	1.596887	0.000123
 3323.96600	1.596911	0.000123
 3325.18700	1.596935	0.000123
 3326.40700	1.596959	0.000122
 3327.62800	1.596983	0.000122
 3328.84900	1.597007	0.000122
 3330.07000	1.597031	0.000122
 3331.29000	1.597055	0.000122
 3332.51100	1.597079	0.000122
 3333.73200	1.597103	0.000122
 3334.95200	1.597127	0.000121
 3336.17300	1.597151	0.000121
 3337.39400	1.597175	0.000121
 3338.61400	1.597198	0.000121
 3339.83500	1.597222	0.000121
 3341.05600	1.597246	0.000121
 3342.27700	1.597270	0.000121
 3343.49700	1.597293	0.000120
 3344.71800	1.597317	0.000120
 3345.93900	1.597340	0.000120
 3347.15900	1.597364	0.000120
 3348.38000	1.597388	0.000120
 3349.60100	1.597411	0.000120
 3350.82100	1.597435	0.000120
 3352.04200	1.597458	0.000119
 3353.26300	1.597482	0.000119
 3354.48400	1.597505	0.000119
 3355.70400	1.597528	0.000119
 3356.92500	1.597552	0.000119
 3358.14600	1.597575	0.000119
 3359.36600	1.597599	0.000119
 3360.58700	1.597622	0.000118
 3361.80800	1.597645	0.000118
 3363.02800	1.597668	0.000118
 3364.24900	1.597692	0.000118
 3365.47000	1.597715	0.000118
 3366.69100	1.597738	0.000118
 3367.91100	1.597761	0.000118
 3369.13200	1.597784	0.000117
 3370.35300	1.597807	0.000117
 3371.57300	1.597830	0.000117
 3372.79400	1.597853	0.000117
 3374.01500	1.597876	0.000117
 3375.23500	1.597899	0.000117
 3376.45600	1.597922	0.000117
 3377.67700	1.597945	0.000116
 3378.89800	1.597968	0.000116
 3380.11800	1.597991	0.000116
 3381.33900	1.598014	0.000116
 3382.56000	1.598037	0.000116
 3383.78000	1.598059	0.000116
 3385.00100	1.598082	0.000116
 3386.22200	1.598105	0.000116
 3387.44200	1.598127	0.000115
 3388.66300	1.598150	0.000115
 3389.88400	1.598173	0.000115
 3391.10500	1.598195	0.000115
 3392.32500	1.598218	0.000115
 3393.54600	1.598241	0.000115
 3394.76700	1.598263	0.000115
 3395.98700	1.598286	0.000114
 3397.20800	1.598308	0.000114
 3398.42900	1.598331	0.000114
 3399.64900	1.598353	0.000114
 3400.87000	1.598376	0.000114
 3402.09100	1.598398	0.000114
 3403.31200	1.598420	0.000114
 3404.53200	1.598443	0.000114
 3405.75300	1.598465	0.000113
 3406.97400	1.598487	0.000113
 3408.19400	1.598510	0.000113
 3409.41500	1.598532	0.000113
 3410.63600	1.598554	0.000113
 3411.85600	1.598576	0.000113
 3413.07700	1.598598	0.000113
 3414.29800	1.598620	0.000112
 3415.51900	1.598643	0.000112
 3416.73900	1.598665	0.000112
 3417.96000	1.598687	0.000112
 3419.18100	1.598709	0.000112
 3420.40100	1.598731	0.000112
 3421.62200	1.598753	0.000112
 3422.84300	1.598775	0.000112
 3424.06300	1.598797	0.000111
 3425.28400	1.598819	0.000111
 3426.50500	1.598840	0.000111
 3427.72600	1.598862	0.000111
 3428.94600	1.598884	0.000111
 3430.16700	1.598906	0.000111
 3431.38800	1.598928	0.000111
 3432.60800	1.598949	0.000111
 3433.82900	1.598971	0.000110
 3435.05000	1.598993	0.000110
 3436.27000	1.599015	0.000110
 3437.49100	1.599036	0.000110
 3438.71200	1.599058	0.000110
 3439.93300	1.599079	0.000110
 3441.15300	1.599101	0.000110
 3442.37400	1.599123	0.000110
 3443.59500	1.599144	0.000109
 3444.81500	1.599166	0.000109
 3446.03600	1.599187	0.000109
 3447.25700	1.599208	0.000109
 3448.47700	1.599230	0.000109
 3449.69800	1.599251	0.000109
 3450.91900	1.599273	0.000109
 3452.14000	1.599294	0.000109
 3453.36000	1.599315	0.000108
 3454.58100	1.599337	0.000108
 3455.80200	1.599358	0.000108
 3457.02200	1.599379	0.000108
 3458.24300	1.599401	0.000108
 3459.46400	1.599422	0.000108
 3460.68400	1.599443	0.000108
 3461.90500	1.599464	0.000108
 3463.12600	1.599485	0.000107
 3464.34700	1.599506	0.000107
 3465.56700	1.599527	0.000107
 3466.78800	1.599548	0.000107
 3468.00900	1.599570	0.000107
 3469.22900	1.599591	0.000107
 3470.45000	1.599612	0.000107
 3471.67100	1.599633	0.000107
 3472.89100	1.599653	0.000107
 3474.11200	1.599674	0.000106
 3475.33300	1.599695	0.000106
 3476.55400	1.599716	0.000106
 3477.77400	1.599737	0.000106
 3478.99500	1.599758	0.000106
 3480.21600	1.599779	0.000106
 3481.43600	1.599799	0.000106
 3482.65700	1.599820	0.000106
 3483.87800	1.599841	0.000106
 3485.09800	1.599862	0.000105
 3486.31900	1.599882	0.000105
 3487.54000	1.599903	0.000105
 3488.76100	1.599924	0.000105
 3489.98100	1.599944	0.000105
 3491.20200	1.599965	0.000105
 3492.42300	1.599985	0.000105
 3493.64300	1.600006	0.000105
 3494.86400	1.600026	0.000104
 3496.08500	1.600047	0.000104
 3497.30500	1.600067	0.000104
 3498.52600	1.600088	0.000104
 3499.74700	1.600108	0.000104
 3500.96800	1.600129	0.000104
 3502.18800	1.600149	0.000104
 3503.40900	1.600170	0.000104
 3504.63000	1.600190	0.000104
 3505.85000	1.600210	0.000103
 3507.07100	1.600230	0.000103
 3508.29200	1.600251	0.000103
 3509.51200	1.600271	0.000103
 3510.73300	1.600291	0.000103
 3511.95400	1.600312	0.000103
 3513.17500	1.600332	0.000103
 3514.39500	1.600352	0.000103
 3515.61600	1.600372	0.000102
 3516.83700	1.600392	0.000102
 3518.05700	1.600412	0.000102
 3519.27800	1.600432	0.000102
 3520.49900	1.600452	0.000102
 3521.71900	1.600472	0.000102
 3522.94000	1.600492	0.000102
 3524.16100	1.600512	0.000102
 3525.38200	1.600532	0.000102
 3526.60200	1.600552	0.000101
 3527.82300	1.600572	0.000101
 3529.04400	1.600592	0.000101
 3530.26400	1.600612	0.000101
 3531.48500	1.600632	0.000101
 3532.70600	1.600652	0.000101
 3533.92600	1.600671	0.000101
 3535.14700	1.600691	0.000101
 3536.36800	1.600711	0.000101
 3537.58900	1.600731	0.000100
 3538.80900	1.600750	0.000100
 3540.03000	1.600770	0.000100
 3541.25100	1.600790	0.000100
 3542.47100	1.600809	0.000100
 3543.69200	1.600829	0.000100
 3544.91300	1.600849	0.000100
 3546.13300	1.600868	0.000100
 3547.35400	1.600888	0.000100
 3548.57500	1.600907	0.000099
 3549.79600	1.600927	0.000099
 3551.01600	1.600946	0.000099
 3552.23700	1.600966	0.000099
 3553.45800	1.600985	0.000099
 3554.67800	1.601005	0.000099
 3555.89900	1.601024	0.000099
 3557.12000	1.601044	0.000099
 3558.34000	1.601063	0.000099
 3559.56100	1.601082	0.000099
 3560.78200	1.601102	0.000098
 3562.00300	1.601121	0.000098
 3563.22300	1.601140	0.000098
 3564.44400	1.601159	0.000098
 3565.66500	1.601179	0.000098
 3566.88500	1.601198	0.000098
 3568.10600	1.601217	0.000098
 3569.32700	1.601236	0.000098
 3570.54700	1.601255	0.000098
 3571.76800	1.601275	0.000097
 3572.98900	1.601294	0.000097
 3574.21000	1.601313	0.000097
 3575.43000	1.601332	0.000097
 3576.65100	1.601351	0.000097
 3577.87200	1.601370	0.000097
 3579.09200	1.601389	0.000097
 3580.31300	1.601408	0.000097
 3581.53400	1.601427	0.000096
 3582.75400	1.601446	0.000096
 3583.97500	1.601465	0.000096
 3585.19600	1.601484	0.000096
 3586.41700	1.601503	0.000096
 3587.63700	1.601521	0.000096
 3588.85800	1.601540	0.000096
 3590.07900	1.601559	0.000096
 3591.29900	1.601578	0.000096
 3592.52000	1.601597	0.000096
 3593.74100	1.601616	0.000095
 3594.96100	1.601634	0.000095
 3596.18200	1.601653	0.000095
 3597.40300	1.601672	0.000095
 3598.62400	1.601690	0.000095
 3599.84400	1.601709	0.000095
 3601.06500	1.601728	0.000095
 3602.28600	1.601746	0.000095
 3603.50600	1.601765	0.000095
 3604.72700	1.601784	0.000095
 3605.94800	1.601802	0.000094
 3607.16800	1.601821	0.000094
 3608.38900	1.601839	0.000094
 3609.61000	1.601858	0.000094
 3610.83100	1.601876	0.000094
 3612.05100	1.601895	0.000094
 3613.27200	1.601913	0.000094
 3614.49300	1.601931	0.000094
 3615.71300	1.601950	0.000094
 3616.93400	1.601968	0.000093
 3618.15500	1.601987	0.000093
 3619.37500	1.602005	0.000093
 3620.59600	1.602023	0.000093
 3621.81700	1.602042	0.000093
 3623.03800	1.602060	0.000093
 3624.25800	1.602078	0.000093
 3625.47900	1.602096	0.000093
 3626.70000	1.602115	0.000093
 3627.92000	1.602133	0.000093
 3629.14100	1.602151	0.000092
 3630.36200	1.602169	0.000092
 3631.58200	1.602187	0.000092
 3632.80300	1.602205	0.000092
 3634.02400	1.602224	0.000092
 3635.24500	1.602242	0.000092
 3636.46500	1.602260	0.000092
 3637.68600	1.602278	0.000092
 3638.90700	1.602296	0.000092
 3640.12700	1.602314	0.000092
 3641.34800	1.602332	0.000092
 3642.56900	1.602350	0.000091
 3643.78900	1.602368	0.000091
 3645.01000	1.602386	0.000091
 3646.23100	1.602404	0.000091
 3647.45200	1.602421	0.000091
 3648.67200	1.602439	0.000091
 3649.89300	1.602457	0.000091
 3651.11400	1.602475	0.000091
 3652.33400	1.602493	0.000091
 3653.55500	1.602511	0.000091
 3654.77600	1.602528	0.000090
 3655.99600	1.602546	0.000090
 3657.21700	1.602564	0.000090
 3658.43800	1.602582	0.000090
 3659.65900	1.602599	0.000090
 3660.87900	1.602617	0.000090
 3662.10000	1.602635	0.000090
 3663.32100	1.602652	0.000090
 3664.54100	1.602670	0.000090
 3665.76200	1.602687	0.000090
 3666.98300	1.602705	0.000089
 3668.20300	1.602723	0.000089
 3669.42400	1.602740	0.000089
 3670.64500	1.602758	0.000089
 3671.86600	1.602775	0.000089
 3673.08600	1.602793	0.000089
 3674.30700	1.602810	0.000089
 3675.52800	1.602828	0.000089
 3676.74800	1.602845	0.000089
 3677.96900	1.602863	0.000089
 3679.19000	1.602880	0.000089
 3680.41000	1.602897	0.000088
 3681.63100	1.602915	0.000088
 3682.85200	1.602932	0.000088
 3684.07300	1.602949	0.000088
 3685.29300	1.602967	0.000088
 3686.51400	1.602984	0.000088
 3687.73500	1.603001	0.000088
 3688.95500	1.603019	0.000088
 3690.17600	1.603036	0.000088
 3691.39700	1.603053	0.000088
 3692.61700	1.603070	0.000088
 3693.83800	1.603087	0.000087
 3695.05900	1.603105	0.000087
 3696.28000	1.603122	0.000087
 3697.50000	1.603139	0.000087
 3698.72100	1.603156	0.000087
 3699.94200	1.603173	0.000087
 3701.16200	1.603190	0.000087
 3702.38300	1.603207	0.000087
 3703.60400	1.603224	0.000087
 3704.82400	1.603241	0.000087
 3706.04500	1.603258	0.000087
 3707.26600	1.603275	0.000086
 3708.48700	1.603292	0.000086
 3709.70700	1.603309	0.000086
 3710.92800	1.603326	0.000086
 3712.14900	1.603343	0.000086
 3713.36900	1.603360	0.000086
 3714.59000	1.603377	0.000086
 3715.81100	1.603394	0.000086
 3717.03100	1.603410	0.000086
 3718.25200	1.603427	0.000086
 3719.47300	1.603444	0.000086
 3720.69400	1.603461	0.000086
 3721.91400	1.603478	0.000085
 3723.13500	1.603495	0.000085
 3724.35600	1.603511	0.000085
 3725.57600	1.603528	0.000085
 3726.79700	1.603545	0.000085
 3728.01800	1.603561	0.000085
 3729.23800	1.603578	0.000085
 3730.45900	1.603595	0.000085
 3731.68000	1.603611	0.000085
 3732.90100	1.603628	0.000085
 3734.12100	1.603644	0.000085
 3735.34200	1.603661	0.000084
 3736.56300	1.603678	0.000084
 3737.78300	1.603694	0.000084
 3739.00400	1.603711	0.000084
 3740.22500	1.603727	0.000084
 3741.44500	1.603744	0.000084
 3742.66600	1.603760	0.000084
 3743.88700	1.603777	0.000084
 3745.10800	1.603793	0.000084
 3746.32800	1.603810	0.000084
 3747.54900	1.603826	0.000084
 3748.77000	1.603842	0.000084
 3749.99000	1.603859	0.000083
 3751.21100	1.603875	0.000083
 3752.43200	1.603891	0.000083
 3753.65200	1.603908	0.000083
 3754.87300	1.603924	0.000083
 3756.09400	1.603940	0.000083
 3757.31500	1.603957	0.000083
 3758.53500	1.603973	0.000083
 3759.75600	1.603989	0.000083
 3760.97700	1.604005	0.000083
 3762.19700	1.604022	0.000083
 3763.41800	1.604038	0.000082
 3764.63900	1.604054	0.000082
 3765.85900	1.604070	0.000082
 3767.08000	1.604086	0.000082
 3768.30100	1.604102	0.000082
 3769.52200	1.604118	0.000082
 3770.74200	1.604135	0.000082
 3771.96300	1.604151	0.000082
 3773.18400	1.604167	0.000082
 3774.40400	1.604183	0.000082
 3775.62500	1.604199	0.000082
 3776.84600	1.604215	0.000082
 3778.06600	1.604231	0.000081
 3779.28700	1.604247	0.000081
 3780.50800	1.604263	0.000081
 3781.72900	1.604279	0.000081
 3782.94900	1.604295	0.000081
 3784.17000	1.604311	0.000081
 3785.39100	1.604326	0.000081
 3786.61100	1.604342	0.000081
 3787.83200	1.604358	0.000081
 3789.05300	1.604374	0.000081
 3790.27300	1.604390	0.000081
 3791.49400	1.604406	0.000081
 3792.71500	1.604421	0.000080
 3793.93600	1.604437	0.000080
 3795.15600	1.604453	0.000080
 3796.37700	1.604469	0.000080
 3797.59800	1.604484	0.000080
 3798.81800	1.604500	0.000080
 3800.03900	1.604516	0.000080
 3801.26000	1.604532	0.000080
 3802.48000	1.604547	0.000080
 3803.70100	1.604563	0.000080
 3804.92200	1.604578	0.000080
 3806.14300	1.604594	0.000080
 3807.36300	1.604610	0.000080
 3808.58400	1.604625	0.000079
 3809.80500	1.604641	0.000079
 3811.02500	1.604656	0.000079
 3812.24600	1.604672	0.000079
 3813.46700	1.604687	0.000079
 3814.68700	1.604703	0.000079
 3815.90800	1.604718	0.000079
 3817.12900	1.604734	0.000079
 3818.35000	1.604749	0.000079
 3819.57000	1.604765	0.000079
 3820.79100	1.604780	0.000079
 3822.01200	1.604796	0.000079
 3823.23200	1.604811	0.000078
 3824.45300	1.604826	0.000078
 3825.67400	1.604842	0.000078
 3826.89400	1.604857	0.000078
 3828.11500	1.604873	0.000078
 3829.33600	1.604888	0.000078
 3830.55700	1.604903	0.000078
 3831.77700	1.604918	0.000078
 3832.99800	1.604934	0.000078
 3834.21900	1.604949	0.000078
 3835.43900	1.604964	0.000078
 3836.66000	1.604979	0.000078
 3837.88100	1.604995	0.000078
 3839.10100	1.605010	0.000077
 3840.32200	1.605025	0.000077
 3841.54300	1.605040	0.000077
 3842.76400	1.605055	0.000077
 3843.98400	1.605070	0.000077
 3845.20500	1.605086	0.000077
 3846.42600	1.605101	0.000077
 3847.64600	1.605116	0.000077
 3848.86700	1.605131	0.000077
 3850.08800	1.605146	0.000077
 3851.30800	1.605161	0.000077
 3852.52900	1.605176	0.000077
 3853.75000	1.605191	0.000077
 3854.97100	1.605206	0.000076
 3856.19100	1.605221	0.000076
 3857.41200	1.605236	0.000076
 3858.63300	1.605251	0.000076
 3859.85300	1.605266	0.000076
 3861.07400	1.605281	0.000076
 3862.29500	1.605296	0.000076
 3863.51500	1.605311	0.000076
 3864.73600	1.605325	0.000076
 3865.95700	1.605340	0.000076
 3867.17800	1.605355	0.000076
 3868.39800	1.605370	0.000076
 3869.61900	1.605385	0.000076
 3870.84000	1.605400	0.000075
 3872.06000	1.605414	0.000075
 3873.28100	1.605429	0.000075
 3874.50200	1.605444	0.000075
 3875.72200	1.605459	0.000075
 3876.94300	1.605473	0.000075
 3878.16400	1.605488	0.000075
 3879.38500	1.605503	0.000075
 3880.60500	1.605518	0.000075
 3881.82600	1.605532	0.000075
 3883.04700	1.605547	0.000075
 3884.26700	1.605561	0.000075
 3885.48800	1.605576	0.000074
 3886.70900	1.605591	0.000074
 3887.92900	1.605605	0.000074
 3889.15000	1.605620	0.000074
 3890.37100	1.605634	0.000074
 3891.59200	1.605649	0.000074
 3892.81200	1.605664	0.000074
 3894.03300	1.605678	0.000074
 3895.25400	1.605693	0.000074
 3896.47400	1.605707	0.000074
 3897.69500	1.605722	0.000074
 3898.91600	1.605736	0.000074
 3900.13600	1.605751	0.000074
 3901.35700	1.605765	0.000073
 3902.57800	1.605779	0.000073
 3903.79900	1.605794	0.000073
 3905.01900	1.605808	0.000073
 3906.24000	1.605823	0.000073
 3907.46100	1.605837	0.000073
 3908.68100	1.605851	0.000073
 3909.90200	1.605866	0.000073
 3911.12300	1.605880	0.000073
 3912.34300	1.605894	0.000073
 3913.56400	1.605909	0.000073
 3914.78500	1.605923	0.000073
 3916.00600	1.605937	0.000073
 3917.22600	1.605951	0.000073
 3918.44700	1.605966	0.000072
 3919.66800	1.605980	0.000072
 3920.88800	1.605994	0.000072
 3922.10900	1.606008	0.000072
 3923.33000	1.606022	0.000072
 3924.55000	1.606037	0.000072
 3925.77100	1.606051	0.000072
 3926.99200	1.606065	0.000072
 3928.21300	1.606079	0.000072
 3929.43300	1.606093	0.000072
 3930.65400	1.606107	0.000072
 3931.87500	1.606121	0.000072
 3933.09500	1.606135	0.000072
 3934.31600	1.606150	0.000072
 3935.53700	1.606164	0.000071
 3936.75700	1.606178	0.000071
 3937.97800	1.606192	0.000071
 3939.19900	1.606206	0.000071
 3940.42000	1.606220	0.000071
 3941.64000	1.606233	0.000071
 3942.86100	1.606247	0.000071
 3944.08200	1.606261	0.000071
 3945.30200	1.606275	0.000071
 3946.52300	1.606289	0.000071
 3947.74400	1.606303	0.000071
 3948.96400	1.606317	0.000071
 3950.18500	1.606331	0.000071
 3951.40600	1.606345	0.000071
 3952.62700	1.606359	0.000071
 3953.84700	1.606372	0.000070
 3955.06800	1.606386	0.000070
 3956.28900	1.606400	0.000070
 3957.50900	1.606414	0.000070
 3958.73000	1.606428	0.000070
 3959.95100	1.606441	0.000070
 3961.17100	1.606455	0.000070
 3962.39200	1.606469	0.000070
 3963.61300	1.606483	0.000070
 3964.83400	1.606497	0.000070
 3966.05400	1.606510	0.000070
 3967.27500	1.606524	0.000070
 3968.49600	1.606538	0.000070
 3969.71600	1.606551	0.000070
 3970.93700	1.606565	0.000069
 3972.15800	1.606578	0.000069
 3973.37800	1.606592	0.000069
 3974.59900	1.606606	0.000069
 3975.82000	1.606619	0.000069
 3977.04100	1.606633	0.000069
 3978.26100	1.606647	0.000069
 3979.48200	1.606660	0.000069
 3980.70300	1.606674	0.000069
 3981.92300	1.606687	0.000069
 3983.14400	1.606701	0.000069
 3984.36500	1.606714	0.000069
 3985.58500	1.606728	0.000069
 3986.80600	1.606741	0.000069
 3988.02700	1.606755	0.000069
 3989.24800	1.606768	0.000068
 3990.46800	1.606781	0.000068
 3991.68900	1.606795	0.000068
 3992.91000	1.606808	0.000068
 3994.13000	1.606822	0.000068
 3995.35100	1.606835	0.000068
 3996.57200	1.606848	0.000068
 3997.79200	1.606862	0.000068
 3999.01300	1.606875	0.000068
 4000.23400	1.606889	0.000068
 4001.45500	1.606902	0.000068
 4002.67500	1.606915	0.000068
 4003.89600	1.606929	0.000068
 4005.11700	1.606942	0.000068
 4006.33700	1.606955	0.000068
 4007.55800	1.606968	0.000068
 4008.77900	1.606982	0.000067
 4009.99900	1.606995	0.000067
 4011.22000	1.607008	0.000067
 4012.44100	1.607021	0.000067
 4013.66200	1.607034	0.000067
 4014.88200	1.607048	0.000067
 4016.10300	1.607061	0.000067
 4017.32400	1.607074	0.000067
 4018.54400	1.607087	0.000067
 4019.76500	1.607100	0.000067
 4020.98600	1.607113	0.000067
 4022.20600	1.607126	0.000067
 4023.42700	1.607140	0.000067
 4024.64800	1.607153	0.000067
 4025.86900	1.607166	0.000067
 4027.08900	1.607179	0.000066
 4028.31000	1.607192	0.000066
 4029.53100	1.607205	0.000066
 4030.75100	1.607218	0.000066
 4031.97200	1.607231	0.000066
 4033.19300	1.607244	0.000066
 4034.41300	1.607257	0.000066
 4035.63400	1.607270	0.000066
 4036.85500	1.607283	0.000066
 4038.07600	1.607296	0.000066
 4039.29600	1.607309	0.000066
 4040.51700	1.607322	0.000066
 4041.73800	1.607334	0.000066
 4042.95800	1.607347	0.000066
 4044.17900	1.607360	0.000066
 4045.40000	1.607373	0.000066
 4046.62000	1.607386	0.000065
 4047.84100	1.607399	0.000065
 4049.06200	1.607412	0.000065
 4050.28300	1.607424	0.000065
 4051.50300	1.607437	0.000065
 4052.72400	1.607450	0.000065
 4053.94500	1.607463	0.000065
 4055.16500	1.607476	0.000065
 4056.38600	1.607489	0.000065
 4057.60700	1.607501	0.000065
 4058.82700	1.607514	0.000065
 4060.04800	1.607527	0.000065
 4061.26900	1.607539	0.000065
 4062.49000	1.607552	0.000065
 4063.71000	1.607565	0.000065
 4064.93100	1.607577	0.000065
 4066.15200	1.607590	0.000064
 4067.37200	1.607603	0.000064
 4068.59300	1.607615	0.000064
 4069.81400	1.607628	0.000064
 4071.03400	1.607641	0.000064
 4072.25500	1.607653	0.000064
 4073.47600	1.607666	0.000064
 4074.69700	1.607678	0.000064
 4075.91700	1.607691	0.000064
 4077.13800	1.607704	0.000064
 4078.35900	1.607716	0.000064
 4079.57900	1.607729	0.000064
 4080.80000	1.607741	0.000064
 4082.02100	1.607754	0.000064
 4083.24100	1.607766	0.000064
 4084.46200	1.607779	0.000064
 4085.68300	1.607791	0.000064
 4086.90400	1.607804	0.000064
 4088.12400	1.607816	0.000064
 4089.34500	1.607828	0.000063
 4090.56600	1.607841	0.000063
 4091.78600	1.607853	0.000063
 4093.00700	1.607866	0.000063
 4094.22800	1.607878	0.000063
 4095.44800	1.607891	0.000063
 4096.66900	1.607903	0.000063
 4097.89000	1.607915	0.000063
 4099.11100	1.607928	0.000063
 4100.33100	1.607940	0.000063
 4101.55200	1.607952	0.000063
 4102.77300	1.607965	0.000063
 4103.99300	1.607977	0.000063
 4105.21400	1.607989	0.000063
 4106.43500	1.608001	0.000063
 4107.65500	1.608014	0.000063
 4108.87600	1.608026	0.000063
 4110.09700	1.608038	0.000062
 4111.31800	1.608050	0.000062
 4112.53800	1.608063	0.000062
 4113.75900	1.608075	0.000062
 4114.98000	1.608087	0.000062
 4116.20000	1.608099	0.000062
 4117.42100	1.608111	0.000062
 4118.64200	1.608124	0.000062
 4119.86200	1.608136	0.000062
 4121.08300	1.608148	0.000062
 4122.30400	1.608160	0.000062
 4123.52500	1.608172	0.000062
 4124.74500	1.608184	0.000062
 4125.96600	1.608196	0.000062
 4127.18700	1.608208	0.000062
 4128.40700	1.608221	0.000062
 4129.62800	1.608232	0.000062
 4130.84900	1.608245	0.000061
 4132.06900	1.608257	0.000061
 4133.29000	1.608269	0.000061
 4134.51100	1.608281	0.000061
 4135.73200	1.608293	0.000061
 4136.95200	1.608305	0.000061
 4138.17300	1.608317	0.000061
 4139.39400	1.608329	0.000061
 4140.61400	1.608341	0.000061
 4141.83500	1.608353	0.000061
 4143.05600	1.608364	0.000061
 4144.27600	1.608376	0.000061
 4145.49700	1.608388	0.000061
 4146.71800	1.608400	0.000061
 4147.93900	1.608412	0.000061
 4149.15900	1.608424	0.000061
 4150.38000	1.608436	0.000060
 4151.60100	1.608448	0.000060
 4152.82100	1.608460	0.000060
 4154.04200	1.608472	0.000060
 4155.26300	1.608483	0.000060
 4156.48300	1.608495	0.000060
 4157.70400	1.608507	0.000060
 4158.92500	1.608519	0.000060
 4160.14600	1.608531	0.000060
 4161.36600	1.608542	0.000060
 4162.58700	1.608554	0.000060
 4163.80800	1.608566	0.000060
 4165.02800	1.608578	0.000060
 4166.24900	1.608589	0.000060
 4167.47000	1.608601	0.000060
 4168.69000	1.608613	0.000060
 4169.91100	1.608624	0.000060
 4171.13200	1.608636	0.000060
 4172.35300	1.608648	0.000059
 4173.57300	1.608660	0.000059
 4174.79400	1.608671	0.000059
 4176.01500	1.608683	0.000059
 4177.23500	1.608694	0.000059
 4178.45600	1.608706	0.000059
 4179.67700	1.608718	0.000059
 4180.89700	1.608729	0.000059
 4182.11800	1.608741	0.000059
 4183.33900	1.608752	0.000059
 4184.56000	1.608764	0.000059
 4185.78000	1.608775	0.000059
 4187.00100	1.608787	0.000059
 4188.22200	1.608799	0.000059
 4189.44200	1.608810	0.000059
 4190.66300	1.608822	0.000059
 4191.88400	1.608833	0.000059
 4193.10400	1.608845	0.000059
 4194.32500	1.608856	0.000059
 4195.54600	1.608868	0.000059
 4196.76700	1.608879	0.000058
 4197.98700	1.608891	0.000058
 4199.20800	1.608902	0.000058
 4200.42900	1.608913	0.000058
 4201.64900	1.608925	0.000058
 4202.87000	1.608936	0.000058
 4204.09100	1.608948	0.000058
 4205.31100	1.608959	0.000058
 4206.53200	1.608970	0.000058
 4207.75300	1.608982	0.000058
 4208.97400	1.608993	0.000058
 4210.19400	1.609004	0.000058
 4211.41500	1.609016	0.000058
 4212.63600	1.609027	0.000058
 4213.85600	1.609038	0.000058
 4215.07700	1.609050	0.000058
 4216.29800	1.609061	0.000058
 4217.51800	1.609072	0.000058
 4218.73900	1.609084	0.000058
 4219.96000	1.609095	0.000057
 4221.18100	1.609106	0.000057
 4222.40100	1.609117	0.000057
 4223.62200	1.609129	0.000057
 4224.84300	1.609140	0.000057
 4226.06300	1.609151	0.000057
 4227.28400	1.609162	0.000057
 4228.50500	1.609173	0.000057
 4229.72500	1.609185	0.000057
 4230.94600	1.609196	0.000057
 4232.16700	1.609207	0.000057
 4233.38800	1.609218	0.000057
 4234.60800	1.609229	0.000057
 4235.82900	1.609240	0.000057
 4237.05000	1.609251	0.000057
 4238.27000	1.609263	0.000057
 4239.49100	1.609274	0.000057
 4240.71200	1.609285	0.000057
 4241.93200	1.609296	0.000057
 4243.15300	1.609307	0.000057
 4244.37400	1.609318	0.000056
 4245.59500	1.609329	0.000056
 4246.81500	1.609340	0.000056
 4248.03600	1.609351	0.000056
 4249.25700	1.609362	0.000056
 4250.47700	1.609373	0.000056
 4251.69800	1.609384	0.000056
 4252.91900	1.609395	0.000056
 4254.13900	1.609406	0.000056
 4255.36000	1.609417	0.000056
 4256.58100	1.609428	0.000056
 4257.80200	1.609439	0.000056
 4259.02200	1.609450	0.000056
 4260.24300	1.609461	0.000056
 4261.46400	1.609472	0.000056
 4262.68400	1.609483	0.000056
 4263.90500	1.609494	0.000056
 4265.12600	1.609505	0.000056
 4266.34600	1.609516	0.000056
 4267.56700	1.609526	0.000055
 4268.78800	1.609537	0.000055
 4270.00900	1.609548	0.000055
 4271.22900	1.609559	0.000055
 4272.45000	1.609570	0.000055
 4273.67100	1.609581	0.000055
 4274.89100	1.609591	0.000055
 4276.11200	1.609602	0.000055
 4277.33300	1.609613	0.000055
 4278.55300	1.609624	0.000055
 4279.77400	1.609635	0.000055
 4280.99500	1.609645	0.000055
 4282.21600	1.609656	0.000055
 4283.43600	1.609667	0.000055
 4284.65700	1.609678	0.000055
 4285.87800	1.609688	0.000055
 4287.09800	1.609699	0.000055
 4288.31900	1.609710	0.000055
 4289.54000	1.609720	0.000055
 4290.76000	1.609731	0.000055
 4291.98100	1.609742	0.000055
 4293.20200	1.609753	0.000054
 4294.42300	1.609763	0.000054
 4295.64300	1.609774	0.000054
 4296.86400	1.609785	0.000054
 4298.08500	1.609795	0.000054
 4299.30500	1.609806	0.000054
 4300.52600	1.609816	0.000054
 4301.74700	1.609827	0.000054
 4302.96700	1.609838	0.000054
 4304.18800	1.609848	0.000054
 4305.40900	1.609859	0.000054
 4306.63000	1.609869	0.000054
 4307.85000	1.609880	0.000054
 4309.07100	1.609890	0.000054
 4310.29200	1.609901	0.000054
 4311.51200	1.609912	0.000054
 4312.73300	1.609922	0.000054
 4313.95400	1.609933	0.000054
 4315.17400	1.609943	0.000054
 4316.39500	1.609954	0.000053
 4317.61600	1.609964	0.000053
 4318.83700	1.609975	0.000053
 4320.05700	1.609985	0.000053
 4321.27800	1.609995	0.000053
 4322.49900	1.610006	0.000053
 4323.71900	1.610016	0.000053
 4324.94000	1.610027	0.000053
 4326.16100	1.610037	0.000053
 4327.38100	1.610048	0.000053
 4328.60200	1.610058	0.000053
 4329.82300	1.610068	0.000053
 4331.04400	1.610079	0.000053
 4332.26400	1.610089	0.000053
 4333.48500	1.610100	0.000053
 4334.70600	1.610110	0.000053
 4335.92600	1.610120	0.000053
 4337.14700	1.610131	0.000053
 4338.36800	1.610141	0.000053
 4339.58800	1.610151	0.000053
 4340.80900	1.610162	0.000053
 4342.03000	1.610172	0.000052
 4343.25100	1.610182	0.000052
 4344.47100	1.610192	0.000052
 4345.69200	1.610203	0.000052
 4346.91300	1.610213	0.000052
 4348.13300	1.610223	0.000052
 4349.35400	1.610233	0.000052
 4350.57500	1.610244	0.000052
 4351.79500	1.610254	0.000052
 4353.01600	1.610264	0.000052
 4354.23700	1.610274	0.000052
 4355.45800	1.610285	0.000052
 4356.67800	1.610295	0.000052
 4357.89900	1.610305	0.000052
 4359.12000	1.610315	0.000052
 4360.34000	1.610325	0.000052
 4361.56100	1.610335	0.000052
 4362.78200	1.610346	0.000052
 4364.00200	1.610356	0.000052
 4365.22300	1.610366	0.000052
 4366.44400	1.610376	0.000052
 4367.66500	1.610386	0.000052
 4368.88500	1.610396	0.000051
 4370.10600	1.610406	0.000051
 4371.32700	1.610416	0.000051
 4372.54700	1.610426	0.000051
 4373.76800	1.610436	0.000051
 4374.98900	1.610447	0.000051
 4376.20900	1.610457	0.000051
 4377.43000	1.610467	0.000051
 4378.65100	1.610477	0.000051
 4379.87200	1.610487	0.000051
 4381.09200	1.610497	0.000051
 4382.31300	1.610507	0.000051
 4383.53400	1.610517	0.000051
 4384.75400	1.610527	0.000051
 4385.97500	1.610537	0.000051
 4387.19600	1.610547	0.000051
 4388.41600	1.610557	0.000051
 4389.63700	1.610567	0.000051
 4390.85800	1.610577	0.000051
 4392.07900	1.610586	0.000051
 4393.29900	1.610596	0.000051
 4394.52000	1.610606	0.000051
 4395.74100	1.610616	0.000050
 4396.96100	1.610626	0.000050
 4398.18200	1.610636	0.000050
 4399.40300	1.610646	0.000050
 4400.62300	1.610656	0.000050
 4401.84400	1.610666	0.000050
 4403.06500	1.610676	0.000050
 4404.28600	1.610685	0.000050
 4405.50600	1.610695	0.000050
 4406.72700	1.610705	0.000050
 4407.94800	1.610715	0.000050
 4409.16800	1.610725	0.000050
 4410.38900	1.610734	0.000050
 4411.61000	1.610744	0.000050
 4412.83000	1.610754	0.000050
 4414.05100	1.610764	0.000050
 4415.27200	1.610774	0.000050
 4416.49300	1.610783	0.000050
 4417.71300	1.610793	0.000050
 4418.93400	1.610803	0.000050
 4420.15500	1.610813	0.000050
 4421.37500	1.610822	0.000050
 4422.59600	1.610832	0.000050
 4423.81700	1.610842	0.000049
 4425.03700	1.610852	0.000049
 4426.25800	1.610861	0.000049
 4427.47900	1.610871	0.000049
 4428.70000	1.610881	0.000049
 4429.92000	1.610890	0.000049
 4431.14100	1.610900	0.000049
 4432.36200	1.610910	0.000049
 4433.58200	1.610919	0.000049
 4434.80300	1.610929	0.000049
 4436.02400	1.610938	0.000049
 4437.24400	1.610948	0.000049
 4438.46500	1.610958	0.000049
 4439.68600	1.610967	0.000049
 4440.90700	1.610977	0.000049
 4442.12700	1.610987	0.000049
 4443.34800	1.610996	0.000049
 4444.56900	1.611006	0.000049
 4445.78900	1.611015	0.000049
 4447.01000	1.611025	0.000049
 4448.23100	1.611034	0.000049
 4449.45100	1.611044	0.000049
 4450.67200	1.611053	0.000049
 4451.89300	1.611063	0.000049
 4453.11400	1.611073	0.000048
 4454.33400	1.611082	0.000048
 4455.55500	1.611091	0.000048
 4456.77600	1.611101	0.000048
 4457.99600	1.611110	0.000048
 4459.21700	1.611120	0.000048
 4460.43800	1.611129	0.000048
 4461.65800	1.611139	0.000048
 4462.87900	1.611148	0.000048
 4464.10000	1.611158	0.000048
 4465.32100	1.611167	0.000048
 4466.54100	1.611177	0.000048
 4467.76200	1.611186	0.000048
 4468.98300	1.611195	0.000048
 4470.20300	1.611205	0.000048
 4471.42400	1.611214	0.000048
 4472.64500	1.611224	0.000048
 4473.86500	1.611233	0.000048
 4475.08600	1.611242	0.000048
 4476.30700	1.611252	0.000048
 4477.52800	1.611261	0.000048
 4478.74800	1.611271	0.000048
 4479.96900	1.611280	0.000048
 4481.19000	1.611289	0.000048
 4482.41000	1.611298	0.000048
 4483.63100	1.611308	0.000048
 4484.85200	1.611317	0.000048
 4486.07200	1.611326	0.000047
 4487.29300	1.611336	0.000047
 4488.51400	1.611345	0.000047
 4489.73500	1.611354	0.000047
 4490.95500	1.611364	0.000047
 4492.17600	1.611373	0.000047
 4493.39700	1.611382	0.000047
 4494.61700	1.611391	0.000047
 4495.83800	1.611400	0.000047
 4497.05900	1.611410	0.000047
 4498.27900	1.611419	0.000047
 4499.50000	1.611428	0.000047
 4500.72100	1.611437	0.000047
 4501.94200	1.611447	0.000047
 4503.16200	1.611456	0.000047
 4504.38300	1.611465	0.000047
 4505.60400	1.611474	0.000047
 4506.82400	1.611483	0.000047
 4508.04500	1.611492	0.000047
 4509.26600	1.611502	0.000047
 4510.48600	1.611511	0.000047
 4511.70700	1.611520	0.000047
 4512.92800	1.611529	0.000047
 4514.14900	1.611538	0.000047
 4515.36900	1.611547	0.000047
 4516.59000	1.611556	0.000046
 4517.81100	1.611565	0.000046
 4519.03100	1.611575	0.000046
 4520.25200	1.611584	0.000046
 4521.47300	1.611593	0.000046
 4522.69300	1.611602	0.000046
 4523.91400	1.611611	0.000046
 4525.13500	1.611620	0.000046
 4526.35600	1.611629	0.000046
 4527.57600	1.611638	0.000046
 4528.79700	1.611647	0.000046
 4530.01800	1.611656	0.000046
 4531.23800	1.611665	0.000046
 4532.45900	1.611674	0.000046
 4533.68000	1.611683	0.000046
 4534.90000	1.611692	0.000046
 4536.12100	1.611701	0.000046
 4537.34200	1.611710	0.000046
 4538.56300	1.611719	0.000046
 4539.78300	1.611728	0.000046
 4541.00400	1.611737	0.000046
 4542.22500	1.611746	0.000046
 4543.44500	1.611755	0.000046
 4544.66600	1.611764	0.000046
 4545.88700	1.611773	0.000046
 4547.10700	1.611781	0.000046
 4548.32800	1.611790	0.000045
 4549.54900	1.611799	0.000045
 4550.77000	1.611808	0.000045
 4551.99000	1.611817	0.000045
 4553.21100	1.611826	0.000045
 4554.43200	1.611835	0.000045
 4555.65200	1.611844	0.000045
 4556.87300	1.611853	0.000045
 4558.09400	1.611861	0.000045
 4559.31400	1.611870	0.000045
 4560.53500	1.611879	0.000045
 4561.75600	1.611888	0.000045
 4562.97700	1.611897	0.000045
 4564.19700	1.611906	0.000045
 4565.41800	1.611914	0.000045
 4566.63900	1.611923	0.000045
 4567.85900	1.611932	0.000045
 4569.08000	1.611941	0.000045
 4570.30100	1.611949	0.000045
 4571.52100	1.611958	0.000045
 4572.74200	1.611967	0.000045
 4573.96300	1.611976	0.000045
 4575.18400	1.611984	0.000045
 4576.40400	1.611993	0.000045
 4577.62500	1.612002	0.000045
 4578.84600	1.612011	0.000045
 4580.06600	1.612019	0.000045
 4581.28700	1.612028	0.000044
 4582.50800	1.612037	0.000044
 4583.72800	1.612046	0.000044
 4584.94900	1.612054	0.000044
 4586.17000	1.612063	0.000044
 4587.39100	1.612072	0.000044
 4588.61100	1.612080	0.000044
 4589.83200	1.612089	0.000044
 4591.05300	1.612098	0.000044
 4592.27300	1.612106	0.000044
 4593.49400	1.612115	0.000044
 4594.71500	1.612123	0.000044
 4595.93500	1.612132	0.000044
 4597.15600	1.612141	0.000044
 4598.37700	1.612149	0.000044
 4599.59800	1.612158	0.000044
 4600.81800	1.612166	0.000044
 4602.03900	1.612175	0.000044
 4603.26000	1.612184	0.000044
 4604.48000	1.612192	0.000044
 4605.70100	1.612201	0.000044
 4606.92200	1.612209	0.000044
 4608.14200	1.612218	0.000044
 4609.36300	1.612226	0.000044
 4610.58400	1.612235	0.000044
 4611.80500	1.612243	0.000044
 4613.02500	1.612252	0.000044
 4614.24600	1.612261	0.000043
 4615.46700	1.612269	0.000043
 4616.68700	1.612278	0.000043
 4617.90800	1.612286	0.000043
 4619.12900	1.612294	0.000043
 4620.34900	1.612303	0.000043
 4621.57000	1.612311	0.000043
 4622.79100	1.612320	0.000043
 4624.01200	1.612328	0.000043
 4625.23200	1.612337	0.000043
 4626.45300	1.612345	0.000043
 4627.67400	1.612354	0.000043
 4628.89400	1.612362	0.000043
 4630.11500	1.612371	0.000043
 4631.33600	1.612379	0.000043
 4632.55600	1.612387	0.000043
 4633.77700	1.612396	0.000043
 4634.99800	1.612404	0.000043
 4636.21900	1.612413	0.000043
 4637.43900	1.612421	0.000043
 4638.66000	1.612429	0.000043
 4639.88100	1.612438	0.000043
 4641.10100	1.612446	0.000043
 4642.32200	1.612455	0.000043
 4643.54300	1.612463	0.000043
 4644.76300	1.612471	0.000043
 4645.98400	1.612479	0.000042
 4647.20500	1.612488	0.000042
 4648.42600	1.612496	0.000042
 4649.64600	1.612504	0.000042
 4650.86700	1.612513	0.000042
 4652.08800	1.612521	0.000042
 4653.30800	1.612529	0.000042
 4654.52900	1.612538	0.000042
 4655.75000	1.612546	0.000042
 4656.97000	1.612554	0.000042
 4658.19100	1.612563	0.000042
 4659.41200	1.612571	0.000042
 4660.63300	1.612579	0.000042
 4661.85300	1.612587	0.000042
 4663.07400	1.612595	0.000042
 4664.29500	1.612604	0.000042
 4665.51500	1.612612	0.000042
 4666.73600	1.612620	0.000042
 4667.95700	1.612628	0.000042
 4669.17700	1.612637	0.000042
 4670.39800	1.612645	0.000042
 4671.61900	1.612653	0.000042
 4672.84000	1.612661	0.000042
 4674.06000	1.612669	0.000042
 4675.28100	1.612677	0.000042
 4676.50200	1.612686	0.000042
 4677.72200	1.612694	0.000042
 4678.94300	1.612702	0.000042
 4680.16400	1.612710	0.000042
 4681.38400	1.612718	0.000041
 4682.60500	1.612726	0.000041
 4683.82600	1.612735	0.000041
 4685.04700	1.612743	0.000041
 4686.26700	1.612751	0.000041
 4687.48800	1.612759	0.000041
 4688.70900	1.612767	0.000041
 4689.92900	1.612775	0.000041
 4691.15000	1.612783	0.000041
 4692.37100	1.612791	0.000041
 4693.59100	1.612799	0.000041
 4694.81200	1.612807	0.000041
 4696.03300	1.612815	0.000041
 4697.25400	1.612823	0.000041
 4698.47400	1.612832	0.000041
 4699.69500	1.612840	0.000041
 4700.91600	1.612848	0.000041
 4702.13600	1.612856	0.000041
 4703.35700	1.612864	0.000041
 4704.57800	1.612872	0.000041
 4705.79800	1.612880	0.000041
 4707.01900	1.612888	0.000041
 4708.24000	1.612896	0.000041
 4709.46100	1.612904	0.000041
 4710.68100	1.612912	0.000041
 4711.90200	1.612920	0.000041
 4713.12300	1.612928	0.000041
 4714.34300	1.612936	0.000041
 4715.56400	1.612944	0.000041
 4716.78500	1.612952	0.000041
 4718.00500	1.612960	0.000040
 4719.22600	1.612967	0.000040
 4720.44700	1.612975	0.000040
 4721.66800	1.612983	0.000040
 4722.88800	1.612991	0.000040
 4724.10900	1.612999	0.000040
 4725.33000	1.613007	0.000040
 4726.55000	1.613015	0.000040
 4727.77100	1.613023	0.000040
 4728.99200	1.613031	0.000040
 4730.21200	1.613039	0.000040
 4731.43300	1.613046	0.000040
 4732.65400	1.613054	0.000040
 4733.87500	1.613062	0.000040
 4735.09500	1.613070	0.000040
 4736.31600	1.613078	0.000040
 4737.53700	1.613086	0.000040
 4738.75700	1.613093	0.000040
 4739.97800	1.613101	0.000040
 4741.19900	1.613109	0.000040
 4742.41900	1.613117	0.000040
 4743.64000	1.613125	0.000040
 4744.86100	1.613133	0.000040
 4746.08200	1.613140	0.000040
 4747.30200	1.613148	0.000040
 4748.52300	1.613156	0.000040
 4749.74400	1.613164	0.000040
 4750.96400	1.613172	0.000040
 4752.18500	1.613179	0.000040
 4753.40600	1.613187	0.000040
 4754.62600	1.613195	0.000040
 4755.84700	1.613203	0.000039
 4757.06800	1.613210	0.000039
 4758.28900	1.613218	0.000039
 4759.50900	1.613226	0.000039
 4760.73000	1.613234	0.000039
 4761.95100	1.613241	0.000039
 4763.17100	1.613249	0.000039
 4764.39200	1.613257	0.000039
 4765.61300	1.613264	0.000039
 4766.83300	1.613272	0.000039
 4768.05400	1.613280	0.000039
 4769.27500	1.613287	0.000039
 4770.49600	1.613295	0.000039
 4771.71600	1.613303	0.000039
 4772.93700	1.613310	0.000039
 4774.15800	1.613318	0.000039
 4775.37800	1.613326	0.000039
 4776.59900	1.613333	0.000039
 4777.82000	1.613341	0.000039
 4779.04000	1.613349	0.000039
 4780.26100	1.613356	0.000039
 4781.48200	1.613364	0.000039
 4782.70300	1.613371	0.000039
 4783.92300	1.613379	0.000039
 4785.14400	1.613387	0.000039
 4786.36500	1.613394	0.000039
 4787.58500	1.613402	0.000039
 4788.80600	1.613410	0.000039
 4790.02700	1.613417	0.000039
 4791.24700	1.613425	0.000039
 4792.46800	1.613432	0.000039
 4793.68900	1.613440	0.000039
 4794.91000	1.613447	0.000039
 4796.13000	1.613455	0.000038
 4797.35100	1.613462	0.000038
 4798.57200	1.613470	0.000038
 4799.79200	1.613478	0.000038
 4801.01300	1.613485	0.000038
 4802.23400	1.613493	0.000038
 4803.45400	1.613500	0.000038
 4804.67500	1.613508	0.000038
 4805.89600	1.613515	0.000038
 4807.11700	1.613523	0.000038
 4808.33700	1.613530	0.000038
 4809.55800	1.613538	0.000038
 4810.77900	1.613545	0.000038
 4811.99900	1.613553	0.000038
 4813.22000	1.613560	0.000038
 4814.44100	1.613567	0.000038
 4815.66100	1.613575	0.000038
 4816.88200	1.613582	0.000038
 4818.10300	1.613590	0.000038
 4819.32400	1.613597	0.000038
 4820.54400	1.613605	0.000038
 4821.76500	1.613612	0.000038
 4822.98600	1.613619	0.000038
 4824.20600	1.613627	0.000038
 4825.42700	1.613634	0.000038
 4826.64800	1.613642	0.000038
 4827.86800	1.613649	0.000038
 4829.08900	1.613657	0.000038
 4830.31000	1.613664	0.000038
 4831.53100	1.613671	0.000038
 4832.75100	1.613679	0.000038
 4833.97200	1.613686	0.000038
 4835.19300	1.613693	0.000038
 4836.41300	1.613701	0.000038
 4837.63400	1.613708	0.000038
 4838.85500	1.613715	0.000038
 4840.07500	1.613723	0.000037
 4841.29600	1.613730	0.000037
 4842.51700	1.613737	0.000037
 4843.73800	1.613745	0.000037
 4844.95800	1.613752	0.000037
 4846.17900	1.613759	0.000037
 4847.40000	1.613767	0.000037
 4848.62000	1.613774	0.000037
 4849.84100	1.613781	0.000037
 4851.06200	1.613789	0.000037
 4852.28200	1.613796	0.000037
 4853.50300	1.613803	0.000037
 4854.72400	1.613810	0.000037
 4855.94500	1.613818	0.000037
 4857.16500	1.613825	0.000037
 4858.38600	1.613832	0.000037
 4859.60700	1.613839	0.000037
 4860.82700	1.613847	0.000037
 4862.04800	1.613854	0.000037
 4863.26900	1.613861	0.000037
 4864.48900	1.613868	0.000037
 4865.71000	1.613876	0.000037
 4866.93100	1.613883	0.000037
 4868.15200	1.613890	0.000037
 4869.37200	1.613897	0.000037
 4870.59300	1.613904	0.000037
 4871.81400	1.613912	0.000037
 4873.03400	1.613919	0.000037
 4874.25500	1.613926	0.000037
 4875.47600	1.613933	0.000037
 4876.69600	1.613940	0.000037
 4877.91700	1.613948	0.000037
 4879.13800	1.613955	0.000037
 4880.35900	1.613962	0.000037
 4881.57900	1.613969	0.000037
 4882.80000	1.613976	0.000036
 4884.02100	1.613983	0.000036
 4885.24100	1.613990	0.000036
 4886.46200	1.613997	0.000036
 4887.68300	1.614005	0.000036
 4888.90300	1.614012	0.000036
 4890.12400	1.614019	0.000036
 4891.34500	1.614026	0.000036
 4892.56600	1.614033	0.000036
 4893.78600	1.614040	0.000036
 4895.00700	1.614047	0.000036
 4896.22800	1.614054	0.000036
 4897.44800	1.614061	0.000036
 4898.66900	1.614068	0.000036
 4899.89000	1.614075	0.000036
 4901.11000	1.614082	0.000036
 4902.33100	1.614089	0.000036
 4903.55200	1.614097	0.000036
 4904.77300	1.614104	0.000036
 4905.99300	1.614111	0.000036
 4907.21400	1.614118	0.000036
 4908.43500	1.614125	0.000036
 4909.65500	1.614132	0.000036
 4910.87600	1.614139	0.000036
 4912.09700	1.614146	0.000036
 4913.31700	1.614153	0.000036
 4914.53800	1.614160	0.000036
 4915.75900	1.614167	0.000036
 4916.98000	1.614174	0.000036
 4918.20000	1.614181	0.000036
 4919.42100	1.614188	0.000036
 4920.64200	1.614195	0.000036
 4921.86200	1.614202	0.000036
 4923.08300	1.614209	0.000036
 4924.30400	1.614216	0.000036
 4925.52400	1.614223	0.000036
 4926.74500	1.614229	0.000035
 4927.96600	1.614236	0.000035
 4929.18700	1.614243	0.000035
 4930.40700	1.614250	0.000035
 4931.62800	1.614257	0.000035
 4932.84900	1.614264	0.000035
 4934.06900	1.614271	0.000035
 4935.29000	1.614278	0.000035
 4936.51100	1.614285	0.000035
 4937.73100	1.614292	0.000035
 4938.95200	1.614299	0.000035
 4940.17300	1.614305	0.000035
 4941.39400	1.614312	0.000035
 4942.61400	1.614319	0.000035
 4943.83500	1.614326	0.000035
 4945.05600	1.614333	0.000035
 4946.27600	1.614340	0.000035
 4947.49700	1.614347	0.000035
 4948.71800	1.614350	0.000035
 4949.93800	1.614354	0.000035
 4951.15900	1.614360	0.000035
 4952.38000	1.614367	0.000035
 4953.60100	1.614374	0.000035
 4954.82100	1.614381	0.000035
 4956.04200	1.614388	0.000035
 4957.26300	1.614395	0.000035
 4958.48300	1.614401	0.000035
 4959.70400	1.614408	0.000035
 4960.92500	1.614415	0.000035
 4962.14500	1.614422	0.000035
 4963.36600	1.614429	0.000035
 4964.58700	1.614435	0.000035
 4965.80800	1.614442	0.000035
 4967.02800	1.614449	0.000035
 4968.24900	1.614456	0.000035
 4969.47000	1.614462	0.000035
 4970.69000	1.614469	0.000035
 4971.91100	1.614476	0.000035
 4973.13200	1.614483	0.000035
 4974.35200	1.614489	0.000034
 4975.57300	1.614496	0.000034
 4976.79400	1.614503	0.000034
 4978.01500	1.614510	0.000034
 4979.23500	1.614516	0.000034
 4980.45600	1.614523	0.000034
 4981.67700	1.614530	0.000034
 4982.89700	1.614537	0.000034
 4984.11800	1.614543	0.000034
 4985.33900	1.614550	0.000034
 4986.55900	1.614557	0.000034
 4987.78000	1.614563	0.000034
 4989.00100	1.614570	0.000034
 4990.22200	1.614577	0.000034
 4991.44200	1.614583	0.000034
 4992.66300	1.614590	0.000034
 4993.88400	1.614597	0.000034
 4995.10400	1.614603	0.000034
 4996.32500	1.614610	0.000034
 4997.54600	1.614617	0.000034
 4998.76600	1.614623	0.000034
 4999.98700	1.614630	0.000034		