#FORMAT = WAVN n dn k dk
#DESCRIPTION = Refractive indices of &#945 nitric acid trihydrate at 181 K from 482 to 6989 cm<sup>-1</sup>.
#SUBSTANCE= ALPHA NAT
#SAMPLEFORM= Thin Film
#TEMPERATURE= 181 K
#CONCENTRATION=   
#DOI=10.1029/94jd02388
#REFERENCE= O. B. Toon, M. A. Tolbert, B. G. Koehler, A. M. Middlebrook, and
## J. Jordan, Infrared optical constants of H2O-ice, amorphous acid
## solutions, and nitric acid hydrates, J. Geophys. Res., 99, 25631 - 25654,
## 1994.
#CONTACT= 
#COMMENT= Derived from 6 spectroscopic measurements of thin crystaline films.
 482 2.171 0.217 3.33E-001 3.3E-002
 494 2.010 0.201 5.68E-001 5.7E-002
 498 1.917 0.192 6.04E-001 6.0E-002
 501 1.825 0.183 5.83E-001 5.8E-002
 509 1.740 0.174 4.51E-001 4.5E-002
 521 1.804 0.180 3.54E-001 3.5E-002
 532 1.843 0.184 4.26E-001 4.3E-002
 544 1.736 0.174 4.87E-001 4.9E-002
 559 1.621 0.162 3.44E-001 3.4E-002
 571 1.649 0.165 2.44E-001 2.4E-002
 590 1.734 0.173 1.76E-001 1.8E-002
 606 1.791 0.179 1.76E-001 1.8E-002
 621 1.834 0.183 1.85E-001 1.9E-002
 636 1.854 0.185 1.98E-001 2.0E-002
 652 1.887 0.189 2.02E-001 2.0E-002
 663 1.929 0.193 2.18E-001 2.2E-002
 675 1.961 0.196 2.82E-001 2.8E-002
 687 1.918 0.192 3.46E-001 3.5E-002
 694 1.895 0.190 3.29E-001 3.3E-002
 702 1.918 0.192 3.15E-001 3.2E-002
 714 1.955 0.196 4.08E-001 4.1E-002
 721 1.891 0.189 4.76E-001 4.8E-002
 733 1.801 0.180 4.63E-001 4.6E-002
 741 1.770 0.177 4.26E-001 4.3E-002
 748 1.777 0.178 4.00E-001 4.0E-002
 756 1.782 0.178 4.13E-001 4.1E-002
 771 1.737 0.174 4.43E-001 4.4E-002
 783 1.687 0.169 4.32E-001 4.3E-002
 802 1.636 0.164 3.62E-001 3.6E-002
 814 1.651 0.165 3.34E-001 3.3E-002
 818 1.652 0.165 3.38E-001 3.4E-002
 822 1.643 0.164 3.44E-001 3.4E-002
 837 1.610 0.161 2.93E-001 2.9E-002
 860 1.630 0.163 2.29E-001 2.3E-002
 906 1.698 0.170 1.75E-001 1.8E-002
 930 1.732 0.173 1.76E-001 1.8E-002
 957 1.756 0.176 1.93E-001 1.9E-002
 976 1.757 0.176 2.04E-001 2.0E-002
1007 1.767 0.177 1.95E-001 1.9E-002
1053 1.785 0.178 2.13E-001 2.1E-002
1061 1.784 0.178 2.05E-001 2.1E-002
1119 1.811 0.181 2.24E-001 2.2E-002
1157 1.825 0.183 2.20E-001 2.2E-002
1203 1.873 0.187 2.24E-001 2.2E-002
1242 1.937 0.194 2.46E-001 2.5E-002
1296 2.047 0.205 3.19E-001 3.2E-002
1311 2.112 0.211 3.58E-001 3.6E-002
1334 2.253 0.225 4.94E-001 4.9E-002
1346 2.355 0.236 6.30E-001 6.3E-002
1354 2.408 0.241 8.57E-001 8.6E-002
1365 2.202 0.220 1.15E+000 1.1E-001
1388 1.683 0.168 1.31E+000 1.3E-001
1419 1.195 0.120 9.98E-001 1.0E-001
1458 1.117 0.112 5.86E-001 5.9E-002
1496 1.193 0.119 3.53E-001 3.5E-002
1539 1.318 0.132 2.29E-001 2.3E-002
1581 1.435 0.144 1.87E-001 1.9E-002
1635 1.536 0.154 2.34E-001 2.3E-002
1685 1.560 0.156 3.01E-001 3.0E-002
1716 1.544 0.154 3.43E-001 3.4E-002
1759 1.477 0.148 3.78E-001 3.8E-002
1824 1.392 0.139 3.14E-001 3.1E-002
1882 1.375 0.138 2.46E-001 2.5E-002
1917 1.382 0.138 2.06E-001 2.1E-002
1959 1.406 0.141 1.72E-001 1.7E-002
2009 1.438 0.144 1.54E-001 1.5E-002
2060 1.463 0.146 1.49E-001 1.5E-002
2098 1.476 0.148 1.52E-001 1.5E-002
2148 1.483 0.148 1.57E-001 1.6E-002
2260 1.493 0.149 1.54E-001 1.5E-002
2368 1.505 0.150 1.54E-001 1.5E-002
2411 1.503 0.150 1.55E-001 1.5E-002
2445 1.502 0.150 1.49E-001 1.5E-002
2542 1.518 0.152 1.43E-001 1.4E-002
2630 1.535 0.153 1.52E-001 1.5E-002
2700 1.543 0.154 1.68E-001 1.7E-002
2769 1.538 0.154 1.87E-001 1.9E-002
2947 1.521 0.152 2.12E-001 2.1E-002
3024 1.518 0.152 2.20E-001 2.2E-002
3093 1.531 0.153 2.44E-001 2.4E-002
3143 1.535 0.153 2.96E-001 3.0E-002
3174 1.511 0.151 3.49E-001 3.5E-002
3213 1.422 0.142 3.95E-001 4.0E-002
3224 1.387 0.139 3.89E-001 3.9E-002
3267 1.310 0.131 3.30E-001 3.3E-002
3302 1.291 0.129 2.81E-001 2.8E-002
3352 1.284 0.128 2.30E-001 2.3E-002
3375 1.287 0.129 2.13E-001 2.1E-002
3394 1.298 0.130 2.05E-001 2.1E-002
3402 1.303 0.130 2.09E-001 2.1E-002
3413 1.307 0.131 2.26E-001 2.3E-002
3437 1.247 0.125 2.63E-001 2.6E-002
3460 1.180 0.118 1.88E-001 1.9E-002
3479 1.188 0.119 1.29E-001 1.3E-002
3510 1.217 0.122 7.50E-002 7.5E-003
3548 1.256 0.126 4.01E-002 4.0E-003
3583 1.286 0.129 2.38E-002 2.4E-003
3622 1.312 0.131 1.45E-002 1.4E-003
3664 1.335 0.134 9.95E-003 1.0E-003
3718 1.357 0.136 7.87E-003 7.9E-004
3834 1.387 0.139 5.42E-003 5.4E-004
3899 1.399 0.140 4.97E-003 5.0E-004
3953 1.408 0.141 5.01E-003 5.0E-004
4019 1.416 0.142 0.00E+000 0.0E+000
4254 1.439 0.144 0.00E+000 0.0E+000
4574 1.459 0.146 0.00E+000 0.0E+000
4999 1.475 0.148 0.00E+000 0.0E+000
5103 1.477 0.148 0.00E+000 0.0E+000
5373 1.483 0.148 0.00E+000 0.0E+000
5778 1.492 0.149 0.00E+000 0.0E+000
6503 1.500 0.150 0.00E+000 0.0E+000
6989 1.502 0.150 0.00E+000 0.0E+000