Optical constants n+ik of olivine (z-orientation, E||z) of natural single crystal olivine
from the University of Freiberg 

A(1/cm)	n.z	k.z
0	2.468584	0
1.221	2.46859	0.000078
2.441	2.468611	0.000156
3.662	2.468645	0.000234
4.883	2.468693	0.000312
6.103	2.468754	0.000391
7.324	2.468829	0.000469
8.545	2.468918	0.000547
9.766	2.46902	0.000626
10.986	2.469137	0.000704
12.207	2.469267	0.000783
13.428	2.46941	0.000861
14.648	2.469568	0.00094
15.869	2.469739	0.001019
17.09	2.469924	0.001098
18.31	2.470123	0.001178
19.531	2.470335	0.001257
20.752	2.470562	0.001337
21.973	2.470803	0.001416
23.193	2.471057	0.001496
24.414	2.471326	0.001577
25.635	2.471608	0.001657
26.855	2.471905	0.001738
28.076	2.472216	0.001819
29.297	2.472541	0.0019
30.517	2.47288	0.001982
31.738	2.473233	0.002063
32.959	2.473601	0.002146
34.18	2.473983	0.002228
35.4	2.474379	0.002311
36.621	2.47479	0.002394
37.842	2.475216	0.002477
39.062	2.475656	0.002561
40.283	2.47611	0.002645
41.504	2.47658	0.00273
42.724	2.477064	0.002815
43.945	2.477563	0.002901
45.166	2.478077	0.002987
46.387	2.478606	0.003073
47.607	2.47915	0.00316
48.828	2.47971	0.003247
50.049	2.480284	0.003335
51.269	2.480874	0.003423
52.49	2.48148	0.003512
53.711	2.482101	0.003602
54.931	2.482737	0.003692
56.152	2.483389	0.003782
57.373	2.484058	0.003873
58.594	2.484741	0.003965
59.814	2.485442	0.004058
61.035	2.486158	0.004151
62.256	2.48689	0.004244
63.476	2.487639	0.004339
64.697	2.488405	0.004434
65.918	2.489187	0.00453
67.138	2.489985	0.004626
68.359	2.490801	0.004724
69.58	2.491633	0.004822
70.801	2.492483	0.004921
72.021	2.49335	0.005021
73.242	2.494235	0.005121
74.463	2.495136	0.005223
75.683	2.496056	0.005325
76.904	2.496994	0.005429
78.125	2.497949	0.005533
79.345	2.498923	0.005638
80.566	2.499915	0.005745
81.787	2.500926	0.005852
83.008	2.501955	0.00596
84.228	2.503004	0.00607
85.449	2.504071	0.00618
86.67	2.505157	0.006292
87.89	2.506263	0.006404
89.111	2.507389	0.006518
90.332	2.508535	0.006634
91.552	2.5097	0.00675
92.773	2.510886	0.006868
93.994	2.512093	0.006987
95.215	2.51332	0.007107
96.435	2.514568	0.007229
97.656	2.515837	0.007352
98.877	2.517128	0.007476
100.097	2.51844	0.007602
101.318	2.519774	0.00773
102.539	2.521131	0.007859
103.759	2.522509	0.00799
104.98	2.523911	0.008122
106.201	2.525336	0.008256
107.422	2.526783	0.008392
108.642	2.528255	0.008529
109.863	2.52975	0.008669
111.084	2.53127	0.00881
112.304	2.532814	0.008953
113.525	2.534383	0.009098
114.746	2.535977	0.009245
115.966	2.537597	0.009394
117.187	2.539243	0.009546
118.408	2.540915	0.009699
119.629	2.542613	0.009855
120.849	2.544339	0.010013
122.07	2.546092	0.010173
123.291	2.547873	0.010336
124.511	2.549681	0.010501
125.732	2.551519	0.010669
126.953	2.553386	0.010839
128.173	2.555282	0.011012
129.394	2.557208	0.011188
130.615	2.559165	0.011367
131.836	2.561153	0.011549
133.056	2.563172	0.011734
134.277	2.565223	0.011921
135.498	2.567307	0.012113
136.718	2.569424	0.012307
137.939	2.571574	0.012505
139.16	2.573759	0.012706
140.38	2.575979	0.012911
141.601	2.578233	0.013119
142.822	2.580524	0.013331
144.043	2.582852	0.013548
145.263	2.585217	0.013768
146.484	2.58762	0.013992
147.705	2.590062	0.014221
148.925	2.592544	0.014454
150.146	2.595065	0.014692
151.367	2.597628	0.014934
152.587	2.600233	0.015182
153.808	2.60288	0.015434
155.029	2.605571	0.015692
156.25	2.608306	0.015955
157.47	2.611087	0.016223
158.691	2.613914	0.016497
159.912	2.616788	0.016777
161.132	2.619711	0.017064
162.353	2.622683	0.017356
163.574	2.625705	0.017655
164.794	2.628779	0.017961
166.015	2.631906	0.018274
167.236	2.635086	0.018594
168.457	2.638322	0.018922
169.677	2.641613	0.019257
170.898	2.644963	0.019601
172.119	2.648372	0.019953
173.339	2.651841	0.020313
174.56	2.655373	0.020683
175.781	2.658968	0.021062
177.001	2.662628	0.021451
178.222	2.666355	0.02185
179.443	2.67015	0.022259
180.664	2.674016	0.02268
181.884	2.677954	0.023112
183.105	2.681966	0.023555
184.326	2.686055	0.024012
185.546	2.690221	0.02448
186.767	2.694468	0.024963
187.988	2.698798	0.025459
189.208	2.703213	0.02597
190.429	2.707715	0.026496
191.65	2.712308	0.027039
192.871	2.716993	0.027597
194.091	2.721774	0.028174
195.312	2.726654	0.028768
196.533	2.731636	0.029382
197.753	2.736722	0.030015
198.974	2.741917	0.03067
200.195	2.747224	0.031346
201.415	2.752646	0.032046
202.636	2.758188	0.03277
203.857	2.763854	0.033519
205.078	2.769647	0.034295
206.298	2.775573	0.035099
207.519	2.781636	0.035933
208.74	2.787841	0.036799
209.96	2.794193	0.037697
211.181	2.800698	0.03863
212.402	2.807363	0.0396
213.622	2.814192	0.040609
214.843	2.821193	0.04166
216.064	2.828372	0.042754
217.285	2.835737	0.043894
218.505	2.843295	0.045084
219.726	2.851055	0.046326
220.947	2.859026	0.047623
222.167	2.867216	0.04898
223.388	2.875636	0.0504
224.609	2.884295	0.051887
225.829	2.893206	0.053446
227.05	2.902379	0.055082
228.271	2.911829	0.056801
229.492	2.921567	0.058608
230.712	2.931609	0.06051
231.933	2.941971	0.062514
233.154	2.952668	0.064628
234.374	2.963719	0.066861
235.595	2.975143	0.069222
236.816	2.986962	0.071722
238.036	2.999196	0.074372
239.257	3.011871	0.077185
240.478	3.025012	0.080175
241.699	3.038648	0.083359
242.919	3.052809	0.086754
244.14	3.067528	0.09038
245.361	3.082842	0.094259
246.581	3.098791	0.098417
247.802	3.115416	0.102882
249.023	3.132766	0.107685
250.243	3.150892	0.112864
251.464	3.169849	0.118458
252.685	3.189702	0.124517
253.906	3.210516	0.131092
255.126	3.232368	0.138249
256.347	3.255342	0.146056
257.568	3.279527	0.154599
258.788	3.305029	0.163975
260.009	3.331958	0.174297
261.23	3.36044	0.185699
262.45	3.390612	0.198339
263.671	3.422631	0.212404
264.892	3.456668	0.22812
266.113	3.492909	0.245754
267.333	3.531565	0.265634
268.554	3.572861	0.288153
269.775	3.617047	0.313799
270.995	3.664386	0.343169
272.216	3.704667	0.395535
273.437	3.746172	0.452775
274.657	3.793262	0.515475
275.878	3.8445	0.586481
277.099	3.894079	0.670234
278.32	3.958441	0.762187
279.54	4.005974	0.877206
280.761	4.07086	1.009131
281.982	4.119001	1.166429
283.202	4.158687	1.355595
284.423	4.195403	1.578281
285.644	4.15786	1.843235
286.864	4.098659	2.152882
288.085	3.904513	2.444772
289.306	3.641534	2.715284
290.527	3.315368	2.908197
291.747	2.92364	2.986047
292.968	2.578418	3.002988
294.189	2.254979	2.885948
295.409	2.010214	2.77055
296.63	1.809754	2.626552
297.851	1.642988	2.481346
299.071	1.50694	2.364641
300.292	1.359064	2.209193
301.513	1.246376	2.072165
302.734	1.150626	1.897921
303.954	1.083545	1.729886
305.175	1.051037	1.568922
306.396	1.037156	1.395923
307.616	1.054623	1.248268
308.837	1.082843	1.096812
310.058	1.136045	0.967789
311.278	1.199415	0.850511
312.499	1.275204	0.749802
313.72	1.360482	0.67404
314.941	1.433615	0.613834
316.161	1.512163	0.567228
317.382	1.578485	0.528669
318.603	1.64786	0.497195
319.823	1.713286	0.473399
321.044	1.770187	0.45585
322.265	1.83699	0.441366
323.485	1.879998	0.436523
324.706	1.93724	0.4281
325.927	1.982854	0.42731
327.148	2.026625	0.428155
328.368	2.076887	0.426937
329.589	2.107623	0.43824
330.81	2.16005	0.441419
332.03	2.185136	0.458062
333.251	2.218713	0.465642
334.472	2.25216	0.472801
335.692	2.276349	0.488911
336.913	2.321661	0.495825
338.134	2.330573	0.522897
339.355	2.361786	0.533522
340.575	2.378197	0.55109
341.796	2.393573	0.568321
343.017	2.420133	0.577
344.237	2.419657	0.597404
345.458	2.458838	0.603345
346.679	2.462449	0.626366
347.899	2.481032	0.639114
349.12	2.500066	0.650822
350.341	2.505139	0.672026
351.562	2.543442	0.679261
352.782	2.537663	0.710277
354.003	2.56562	0.727702
355.224	2.57094	0.754964
356.444	2.573902	0.783363
357.665	2.59233	0.803988
358.886	2.566819	0.842265
360.106	2.584253	0.858407
361.327	2.55549	0.886277
362.548	2.540968	0.900504
363.769	2.524821	0.903256
364.989	2.492809	0.901592
366.21	2.511647	0.881744
367.431	2.488267	0.882986
368.651	2.502845	0.870201
369.872	2.500547	0.861053
371.093	2.502594	0.849167
372.313	2.529025	0.829948
373.534	2.520962	0.824025
374.755	2.572664	0.799813
375.976	2.589213	0.79918
377.196	2.630035	0.795033
378.417	2.668787	0.798572
379.638	2.682495	0.815004
380.858	2.735307	0.803696
382.079	2.748119	0.816474
383.3	2.810821	0.818122
384.52	2.846559	0.834487
385.741	2.887471	0.850489
386.962	2.960076	0.858233
388.183	2.981358	0.90053
389.403	3.081952	0.917556
390.624	3.113205	0.973937
391.845	3.185396	1.014834
393.065	3.257877	1.068368
394.286	3.294581	1.155043
395.507	3.394796	1.20112
396.727	3.426457	1.303454
397.948	3.541427	1.420852
399.169	3.573181	1.572423
400.39	3.589535	1.741491
401.61	3.636136	1.906552
402.831	3.524731	2.111141
404.052	3.497234	2.28139
405.272	3.326869	2.377849
406.493	3.244413	2.439638
407.714	3.218133	2.480655
408.934	3.188704	2.543961
410.155	3.313309	2.71554
411.376	3.197275	2.955173
412.597	3.088673	3.284209
413.817	2.795823	3.498559
415.038	2.41208	3.624536
416.259	2.091737	3.670952
417.479	1.739072	3.504622
418.7	1.553587	3.441132
419.921	1.371979	3.274112
421.141	1.231518	3.15737
422.362	1.118889	3.053886
423.583	1.004457	2.904169
424.804	0.92069	2.842093
426.024	0.83628	2.680153
427.245	0.776389	2.592237
428.466	0.72351	2.479891
429.686	0.676587	2.366896
430.907	0.640175	2.290731
432.128	0.603757	2.161332
433.348	0.577352	2.100338
434.569	0.551372	1.993116
435.79	0.531201	1.906698
437.011	0.514632	1.8251
438.231	0.498976	1.721735
439.452	0.488907	1.65525
440.673	0.479784	1.545458
441.893	0.47839	1.464516
443.114	0.478723	1.370076
444.335	0.483652	1.269078
445.555	0.496445	1.176728
446.776	0.517366	1.056238
447.997	0.557717	0.958229
449.218	0.609605	0.842321
450.438	0.687532	0.735083
451.659	0.787197	0.64393
452.88	0.901734	0.570366
454.1	1.027743	0.533284
455.321	1.132799	0.514123
456.542	1.240107	0.504068
457.762	1.341482	0.500952
458.983	1.447669	0.508857
460.204	1.558151	0.533664
461.425	1.642475	0.578111
462.645	1.743421	0.62443
463.866	1.816882	0.688276
465.087	1.899476	0.765621
466.307	1.962209	0.853983
467.528	1.994911	0.952385
468.749	2.070052	1.050379
469.969	2.05752	1.199039
471.19	2.038755	1.362989
472.411	1.925058	1.487569
473.632	1.772271	1.561935
474.852	1.650868	1.574538
476.073	1.502418	1.52604
477.294	1.43644	1.46676
478.514	1.371308	1.361992
479.735	1.363373	1.256485
480.956	1.398208	1.161884
482.176	1.45143	1.077372
483.397	1.558133	1.032188
484.618	1.638675	1.010776
485.839	1.764119	1.026026
487.059	1.855723	1.072641
488.28	1.940639	1.140057
489.501	2.035827	1.222946
490.721	2.063031	1.328883
491.942	2.148462	1.454916
493.163	2.139785	1.592284
494.383	2.141192	1.754213
495.604	2.102307	1.904669
496.825	1.988886	2.036064
498.046	1.945525	2.190885
499.266	1.75261	2.25483
500.487	1.633435	2.345628
501.708	1.483903	2.36996
502.928	1.329987	2.377604
504.149	1.220079	2.403553
505.37	1.061112	2.332879
506.59	0.973525	2.349602
507.811	0.857212	2.278461
509.032	0.758568	2.235856
510.253	0.675471	2.187822
511.473	0.588356	2.092723
512.694	0.529154	2.0664
513.915	0.472421	1.950823
515.135	0.434774	1.904264
516.356	0.401636	1.833376
517.577	0.372022	1.762734
518.797	0.350005	1.726945
520.018	0.326438	1.636916
521.239	0.310395	1.61745
522.46	0.293576	1.548352
523.68	0.280796	1.503587
524.901	0.27075	1.463692
526.122	0.260525	1.401526
527.342	0.252417	1.386389
528.563	0.243769	1.3182
529.784	0.237918	1.292228
531.004	0.232896	1.248794
532.225	0.228527	1.205316
533.446	0.224758	1.183818
534.667	0.220629	1.123807
535.887	0.218733	1.112581
537.108	0.21504	1.066228
538.329	0.21203	1.036287
539.549	0.209679	1.007556
540.77	0.208001	0.960947
541.991	0.20828	0.949529
543.211	0.206646	0.898726
544.432	0.20593	0.879599
545.653	0.204174	0.845733
546.874	0.202125	0.809975
548.094	0.200645	0.789277
549.315	0.200288	0.736413
550.536	0.20296	0.722489
551.756	0.204523	0.680419
552.977	0.207008	0.652056
554.198	0.208862	0.624778
555.418	0.210307	0.581344
556.639	0.213648	0.564892
557.86	0.217205	0.514681
559.081	0.221404	0.490593
560.301	0.230142	0.470671
561.522	0.242965	0.44793
562.743	0.258383	0.437314
563.963	0.274457	0.406185
565.184	0.292982	0.39618
566.405	0.313727	0.368385
567.625	0.339896	0.347302
568.846	0.369391	0.326958
570.067	0.403464	0.30451
571.288	0.44081	0.291533
572.508	0.481118	0.277023
573.729	0.522432	0.270804
574.95	0.555756	0.247844
576.17	0.588328	0.228062
577.391	0.619842	0.210974
578.612	0.65014	0.196136
579.832	0.679167	0.183171
581.053	0.70693	0.171763
582.274	0.733473	0.161658
583.495	0.758853	0.152649
584.715	0.783138	0.144568
585.936	0.806393	0.13728
587.157	0.828694	0.130672
588.377	0.850099	0.124654
589.598	0.870669	0.119149
590.819	0.89046	0.114093
592.039	0.909524	0.109435
593.26	0.927909	0.105128
594.481	0.945656	0.101134
595.702	0.962806	0.097421
596.922	0.979394	0.09396
598.143	0.995457	0.090725
599.364	1.011023	0.087697
600.584	1.026122	0.084855
601.805	1.04078	0.082183
603.026	1.055021	0.079668
604.246	1.068868	0.077295
605.467	1.082341	0.075054
606.688	1.095459	0.072933
607.909	1.10824	0.070925
609.129	1.120702	0.06902
610.35	1.13286	0.067211
611.571	1.144728	0.065491
612.791	1.156321	0.063855
614.012	1.16765	0.062296
615.233	1.178728	0.060809
616.453	1.189566	0.059391
617.674	1.200174	0.058036
618.895	1.210564	0.056741
620.116	1.220744	0.055502
621.336	1.230722	0.054316
622.557	1.240508	0.05318
623.778	1.25011	0.05209
624.998	1.259534	0.051046
626.219	1.268788	0.050043
627.44	1.27788	0.04908
628.66	1.286813	0.048156
629.881	1.295596	0.047267
631.102	1.304235	0.046412
632.323	1.312734	0.045589
633.543	1.321099	0.044797
634.764	1.329336	0.044035
635.985	1.337448	0.043301
637.205	1.345441	0.042594
638.426	1.353318	0.041912
639.647	1.361085	0.041254
640.867	1.368745	0.04062
642.088	1.376302	0.040009
643.309	1.38376	0.039418
644.53	1.391123	0.038849
645.75	1.398394	0.038299
646.971	1.405576	0.037768
648.192	1.412672	0.037256
649.412	1.419686	0.036761
650.633	1.42662	0.036282
651.854	1.433478	0.035821
653.074	1.440263	0.035375
654.295	1.446976	0.034944
655.516	1.45362	0.034527
656.737	1.460199	0.034125
657.957	1.466714	0.033737
659.178	1.473168	0.033361
660.399	1.479563	0.032999
661.619	1.485901	0.032648
662.84	1.492185	0.03231
664.061	1.498416	0.031984
665.281	1.504598	0.031668
666.502	1.51073	0.031364
667.723	1.516817	0.031071
668.944	1.522859	0.030787
670.164	1.528857	0.030514
671.385	1.534815	0.030251
672.606	1.540735	0.029997
673.826	1.546616	0.029753
675.047	1.552462	0.029518
676.268	1.558274	0.029291
677.488	1.564054	0.029074
678.709	1.569803	0.028865
679.93	1.575522	0.028664
681.151	1.581214	0.028471
682.371	1.586879	0.028286
683.592	1.59252	0.02811
684.813	1.598137	0.027941
686.033	1.603733	0.027779
687.254	1.609308	0.027625
688.475	1.614864	0.027478
689.695	1.620403	0.027339
690.916	1.625926	0.027206
692.137	1.631432	0.027081
693.358	1.636926	0.026962
694.578	1.642408	0.02685
695.799	1.647878	0.026745
697.02	1.65334	0.026647
698.24	1.658792	0.026555
699.461	1.664238	0.02647
700.682	1.669679	0.026391
701.902	1.675114	0.026319
703.123	1.680547	0.026253
704.344	1.685978	0.026193
705.565	1.691408	0.02614
706.785	1.696839	0.026093
708.006	1.702273	0.026053
709.227	1.707709	0.026019
710.447	1.713151	0.02599
711.668	1.718598	0.025969
712.889	1.724052	0.025953
714.109	1.729515	0.025944
715.33	1.734987	0.025941
716.551	1.740471	0.025944
717.772	1.745968	0.025954
718.992	1.751478	0.02597
720.213	1.757004	0.025992
721.434	1.762546	0.026021
722.654	1.768106	0.026057
723.875	1.773685	0.026098
725.096	1.779286	0.026147
726.316	1.784908	0.026202
727.537	1.790554	0.026264
728.758	1.796226	0.026332
729.979	1.801924	0.026408
731.199	1.807651	0.02649
732.42	1.813407	0.02658
733.641	1.819194	0.026677
734.861	1.825015	0.026781
736.082	1.83087	0.026892
737.303	1.836762	0.027011
738.523	1.842692	0.027138
739.744	1.848661	0.027273
740.965	1.854672	0.027415
742.186	1.860727	0.027566
743.406	1.866827	0.027725
744.627	1.872974	0.027893
745.848	1.87917	0.028069
747.068	1.885417	0.028254
748.289	1.891718	0.028448
749.51	1.898075	0.028652
750.73	1.904488	0.028865
751.951	1.910962	0.029088
753.172	1.917498	0.029321
754.393	1.924098	0.029565
755.613	1.930766	0.029819
756.834	1.937503	0.030084
758.055	1.944312	0.030361
759.275	1.951196	0.030649
760.496	1.958158	0.03095
761.717	1.9652	0.031262
762.937	1.972325	0.031588
764.158	1.979538	0.031927
765.379	1.986839	0.03228
766.6	1.994233	0.032646
767.82	2.001725	0.033028
769.041	2.009316	0.033425
770.262	2.01701	0.033837
771.482	2.024812	0.034266
772.703	2.032726	0.034712
773.924	2.040755	0.035176
775.144	2.048904	0.035658
776.365	2.057176	0.036159
777.586	2.065577	0.03668
778.807	2.074112	0.037222
780.027	2.082787	0.037785
781.248	2.091604	0.038371
782.469	2.100571	0.03898
783.689	2.109693	0.039614
784.91	2.118976	0.040274
786.131	2.128426	0.04096
787.351	2.13805	0.041675
788.572	2.147854	0.042419
789.793	2.157847	0.043194
791.014	2.168034	0.044001
792.234	2.178425	0.044842
793.455	2.189028	0.045719
794.676	2.19985	0.046633
795.896	2.210902	0.047587
797.117	2.222191	0.048583
798.338	2.233731	0.049622
799.558	2.24553	0.050708
800.779	2.2576	0.051842
802	2.269953	0.053028
803.221	2.282602	0.054269
804.441	2.295559	0.055567
805.662	2.30884	0.056927
806.883	2.322457	0.058352
808.103	2.336428	0.059846
809.324	2.350771	0.061414
810.545	2.365501	0.063059
811.765	2.380639	0.064788
812.986	2.396205	0.066606
814.207	2.41222	0.06852
815.428	2.428707	0.070534
816.648	2.445691	0.072657
817.869	2.463197	0.074897
819.09	2.481257	0.077263
820.31	2.499898	0.079763
821.531	2.519154	0.082408
822.752	2.53906	0.08521
823.972	2.559653	0.088182
825.193	2.580975	0.091336
826.414	2.60307	0.094689
827.635	2.625986	0.098258
828.855	2.64977	0.102061
830.076	2.674485	0.106121
831.297	2.70019	0.11046
832.517	2.726952	0.115107
833.738	2.754843	0.12009
834.959	2.783945	0.125443
836.179	2.814343	0.131206
837.4	2.846136	0.137421
838.621	2.879428	0.144138
839.842	2.914339	0.151414
841.062	2.951	0.159314
842.283	2.989555	0.167914
843.504	3.030165	0.177301
844.724	3.073012	0.187576
845.945	3.118297	0.198857
847.166	3.166248	0.211285
848.386	3.217126	0.225025
849.607	3.271209	0.240269
850.828	3.328841	0.257259
852.049	3.390394	0.276275
853.269	3.456297	0.297662
854.49	3.527044	0.321842
855.711	3.603201	0.349338
856.931	3.680708	0.405111
858.152	3.779042	0.453585
859.373	3.849632	0.533573
860.593	3.95383	0.604265
861.814	4.067136	0.686486
863.035	4.148791	0.824033
864.256	4.399938	0.887613
865.476	4.434423	1.152755
866.697	4.74586	1.348125
867.918	4.783168	1.699947
869.138	4.831676	2.16724
870.359	4.970144	2.604856
871.58	4.387414	3.265353
872.8	4.407859	3.851048
874.021	3.682315	4.184009
875.242	3.176538	4.522252
876.463	2.783988	4.563822
877.683	2.15129	4.347967
878.904	1.996498	4.453725
880.125	1.560896	4.057304
881.345	1.386122	4.009513
882.566	1.199519	3.810315
883.787	1.013132	3.593953
885.007	0.935678	3.556236
886.228	0.773738	3.232385
887.449	0.73994	3.255257
888.67	0.65555	3.047166
889.89	0.601874	2.951158
891.111	0.563582	2.877752
892.332	0.504607	2.695364
893.552	0.494273	2.720993
894.773	0.447223	2.525034
895.994	0.432117	2.507618
897.214	0.40821	2.417835
898.435	0.384021	2.324525
899.656	0.374838	2.31997
900.877	0.343644	2.16548
902.097	0.339747	2.195811
903.318	0.319126	2.092285
904.539	0.306252	2.053075
905.759	0.295823	2.02103
906.98	0.278279	1.92374
908.201	0.274255	1.953059
909.421	0.255977	1.83536
910.642	0.249578	1.832337
911.863	0.240099	1.777991
913.084	0.230999	1.721505
914.304	0.227403	1.723568
915.525	0.214653	1.621817
916.746	0.2115	1.648565
917.966	0.201299	1.577895
919.187	0.194459	1.553031
920.408	0.189145	1.531911
921.628	0.181287	1.463365
922.849	0.177968	1.488471
924.07	0.16802	1.401797
925.291	0.163805	1.401238
926.511	0.15845	1.361085
927.732	0.152965	1.319043
928.953	0.149604	1.320606
930.173	0.143089	1.24071
931.394	0.140824	1.260684
932.615	0.13609	1.20439
933.835	0.132942	1.184332
935.056	0.130468	1.166973
936.277	0.12719	1.111569
937.498	0.126105	1.130123
938.718	0.122344	1.060727
939.939	0.120485	1.060566
941.16	0.117762	1.027862
942.38	0.114834	0.993122
943.601	0.112713	0.99334
944.822	0.109453	0.926114
946.042	0.109005	0.940408
947.263	0.107909	0.892502
948.484	0.107353	0.874731
949.705	0.106591	0.858779
950.925	0.105641	0.809868
952.146	0.106334	0.821891
953.367	0.107184	0.759249
954.587	0.112	0.754407
955.808	0.118536	0.72465
957.029	0.127042	0.697867
958.249	0.133458	0.705675
959.47	0.131556	0.658266
960.691	0.126904	0.678101
961.912	0.120316	0.637631
963.132	0.115974	0.621391
964.353	0.113346	0.606223
965.574	0.110893	0.561259
966.794	0.110199	0.571703
968.015	0.109271	0.514425
969.236	0.109924	0.510413
970.456	0.109764	0.481386
971.677	0.110114	0.44951
972.898	0.110805	0.445627
974.119	0.111733	0.387156
975.339	0.113722	0.394861
976.56	0.114849	0.35132
977.781	0.117449	0.330424
979.001	0.119269	0.341166
980.222	0.123103	0.327933
981.443	0.126706	0.346224
982.663	0.130486	0.330148
983.884	0.137512	0.330594
985.105	0.142354	0.323305
986.326	0.155216	0.288709
987.546	0.164542	0.255194
988.767	0.183276	0.224214
989.988	0.202049	0.197058
991.208	0.225654	0.174278
992.429	0.256339	0.155626
993.65	0.28678	0.140435
994.87	0.3221	0.127981
996.091	0.363991	0.117643
997.312	0.40886	0.108945
998.533	0.443769	0.101523
999.753	0.477414	0.095112
1000.974	0.507	0.089511
1002.195	0.526892	0.08457
1003.415	0.545821	0.080172
1004.636	0.563871	0.076227
1005.857	0.581114	0.072665
1007.077	0.597616	0.069429
1008.298	0.613434	0.066474
1009.519	0.628621	0.063762
1010.74	0.643221	0.061263
1011.96	0.657278	0.058951
1013.181	0.670826	0.056805
1014.402	0.683899	0.054806
1015.622	0.696528	0.052939
1016.843	0.708741	0.05119
1018.064	0.720559	0.049549
1019.284	0.732008	0.048005
1020.505	0.743108	0.046549
1021.726	0.753878	0.045174
1022.947	0.764335	0.043872
1024.167	0.774495	0.042638
1025.388	0.784373	0.041467
1026.609	0.793983	0.040353
1027.829	0.803337	0.039294
1029.05	0.812448	0.038283
1030.271	0.821325	0.037318
1031.491	0.829981	0.036397
1032.712	0.838422	0.035515
1033.933	0.84666	0.034672
1035.154	0.854704	0.033863
1036.374	0.86256	0.033087
1037.595	0.870236	0.032341
1038.816	0.877738	0.031626
1040.036	0.885076	0.030937
1041.257	0.892251	0.030274
1042.478	0.899274	0.029636
1043.698	0.906147	0.029021
1044.919	0.912877	0.028428
1046.14	0.91947	0.027856
1047.361	0.925928	0.027303
1048.581	0.932259	0.026769
1049.802	0.938463	0.026253
1051.023	0.944548	0.025753
1052.243	0.950516	0.02527
1053.464	0.956371	0.024802
1054.685	0.962116	0.024349
1055.905	0.967755	0.02391
1057.126	0.973293	0.023484
1058.347	0.978729	0.02307
1059.568	0.98407	0.022669
1060.788	0.989317	0.02228
1062.009	0.994472	0.021902
1063.23	0.999539	0.021535
1064.45	1.00452	0.021178
1065.671	1.009417	0.020831
1066.892	1.014232	0.020493
1068.112	1.018969	0.020165
1069.333	1.023629	0.019845
1070.554	1.028214	0.019534
1071.775	1.032726	0.01923
1072.995	1.037167	0.018935
1074.216	1.041538	0.018647
1075.437	1.045841	0.018367
1076.657	1.05008	0.018093
1077.878	1.054254	0.017826
1079.099	1.058366	0.017565
1080.319	1.062416	0.017311
1081.54	1.066407	0.017063
1082.761	1.070339	0.016821
1083.982	1.074216	0.016585
1085.202	1.078036	0.016354
1086.423	1.081802	0.016128
1087.644	1.085515	0.015907
1088.864	1.089177	0.015692
1090.085	1.092788	0.015481
1091.306	1.096349	0.015274
1092.526	1.099863	0.015073
1093.747	1.103328	0.014875
1094.968	1.106748	0.014682
1096.189	1.110122	0.014493
1097.409	1.113452	0.014308
1098.63	1.116739	0.014127
1099.851	1.119983	0.01395
1101.071	1.123186	0.013776
1102.292	1.126347	0.013606
1103.513	1.12947	0.013439
1104.733	1.132552	0.013275
1105.954	1.135597	0.013115
1107.175	1.138604	0.012958
1108.396	1.141574	0.012804
1109.616	1.144508	0.012653
1110.837	1.147407	0.012505
1112.058	1.150271	0.012359
1113.278	1.153101	0.012217
1114.499	1.155898	0.012077
1115.72	1.158662	0.01194
1116.94	1.161394	0.011805
1118.161	1.164094	0.011673
1119.382	1.166762	0.011543
1120.603	1.169402	0.011415
1121.823	1.172011	0.01129
1123.044	1.174591	0.011167
1124.265	1.177141	0.011046
1125.485	1.179664	0.010927
1126.706	1.182159	0.010811
1127.927	1.184626	0.010696
1129.147	1.187067	0.010583
1130.368	1.189481	0.010473
1131.589	1.19187	0.010364
1132.81	1.194233	0.010257
1134.03	1.196571	0.010151
1135.251	1.198885	0.010048
1136.472	1.201174	0.009946
1137.692	1.203439	0.009846
1138.913	1.205681	0.009747
1140.134	1.2079	0.00965
1141.354	1.210097	0.009555
1142.575	1.212271	0.009461
1143.796	1.214423	0.009369
1145.017	1.216554	0.009278
1146.237	1.218663	0.009188
1147.458	1.220752	0.0091
1148.679	1.22282	0.009013
1149.899	1.224867	0.008928
1151.12	1.226896	0.008844
1152.341	1.228904	0.008761
1153.561	1.230893	0.008679
1154.782	1.232863	0.008599
1156.003	1.234814	0.008519
1157.224	1.236746	0.008442
1158.444	1.238661	0.008365
1159.665	1.240557	0.008289
1160.886	1.242436	0.008214
1162.106	1.244298	0.008141
1163.327	1.246142	0.008068
1164.548	1.24797	0.007996
1165.768	1.249781	0.007926
1166.989	1.251576	0.007857
1168.21	1.253354	0.007788
1169.431	1.255116	0.007721
1170.651	1.256863	0.007654
1171.872	1.258594	0.007588
1173.093	1.26031	0.007523
1174.313	1.262011	0.007459
1175.534	1.263697	0.007396
1176.755	1.265368	0.007334
1177.975	1.267025	0.007273
1179.196	1.268668	0.007212
1180.417	1.270296	0.007153
1181.638	1.271911	0.007094
1182.858	1.273512	0.007035
1184.079	1.2751	0.006978
1185.3	1.276674	0.006921
1186.52	1.278235	0.006865
1187.741	1.279783	0.00681
1188.962	1.281318	0.006756
1190.182	1.282841	0.006702
1191.403	1.284351	0.006649
1192.624	1.285849	0.006596
1193.845	1.287334	0.006545
1195.065	1.288808	0.006493
1196.286	1.29027	0.006443
1197.507	1.29172	0.006393
1198.727	1.293158	0.006344
1199.948	1.294586	0.006295
1201.169	1.296001	0.006247
1202.389	1.297406	0.006199
1203.61	1.2988	0.006152
1204.831	1.300183	0.006106
1206.052	1.301555	0.00606
1207.272	1.302916	0.006015
1208.493	1.304267	0.00597
1209.714	1.305608	0.005926
1210.934	1.306939	0.005882
1212.155	1.308259	0.005839
1213.376	1.309569	0.005797
1214.596	1.31087	0.005754
1215.817	1.312161	0.005713
1217.038	1.313442	0.005671
1218.259	1.314713	0.005631
1219.479	1.315976	0.00559
1220.7	1.317229	0.005551
1221.921	1.318473	0.005511
1223.141	1.319707	0.005472
1224.362	1.320933	0.005434
1225.583	1.32215	0.005396
1226.803	1.323358	0.005358
1228.024	1.324557	0.005321
1229.245	1.325748	0.005284
1230.466	1.32693	0.005247
1231.686	1.328104	0.005211
1232.907	1.32927	0.005176
1234.128	1.330427	0.005141
1235.348	1.331576	0.005106
1236.569	1.332717	0.005071
1237.79	1.33385	0.005037
1239.01	1.334976	0.005003
1240.231	1.336093	0.00497
1241.452	1.337203	0.004937
1242.673	1.338305	0.004904
1243.893	1.3394	0.004872
1245.114	1.340488	0.004839
1246.335	1.341567	0.004808
1247.555	1.34264	0.004776
1248.776	1.343705	0.004745
1249.997	1.344764	0.004715
1251.217	1.345815	0.004684
1252.438	1.346859	0.004654
1253.659	1.347896	0.004624
1254.88	1.348927	0.004595
1256.1	1.349951	0.004565
1257.321	1.350968	0.004536
1258.542	1.351978	0.004508
1259.762	1.352982	0.004479
1260.983	1.353979	0.004451
1262.204	1.35497	0.004423
1263.424	1.355954	0.004396
1264.645	1.356932	0.004369
1265.866	1.357904	0.004341
1267.087	1.358869	0.004315
1268.307	1.359829	0.004288
1269.528	1.360782	0.004262
1270.749	1.36173	0.004236
1271.969	1.362671	0.00421
1273.19	1.363607	0.004185
1274.411	1.364537	0.004159
1275.631	1.36546	0.004134
1276.852	1.366379	0.00411
1278.073	1.367291	0.004085
1279.294	1.368198	0.004061
1280.514	1.369099	0.004037
1281.735	1.369995	0.004013
1282.956	1.370886	0.003989
1284.176	1.371771	0.003966
1285.397	1.37265	0.003942
1286.618	1.373524	0.003919
1287.838	1.374393	0.003897
1289.059	1.375257	0.003874
1290.28	1.376116	0.003852
1291.501	1.376969	0.003829
1292.721	1.377818	0.003808
1293.942	1.378661	0.003786
1295.163	1.3795	0.003764
1296.383	1.380333	0.003743
1297.604	1.381162	0.003721
1298.825	1.381986	0.0037
1300.045	1.382805	0.003679
1301.266	1.383619	0.003659
1302.487	1.384429	0.003638
1303.708	1.385234	0.003618
1304.928	1.386034	0.003598
1306.149	1.386829	0.003578
1307.37	1.38762	0.003558
1308.59	1.388407	0.003539
1309.811	1.389189	0.003519
1311.032	1.389967	0.0035
1312.252	1.39074	0.003481
1313.473	1.391509	0.003462
1314.694	1.392274	0.003443
1315.915	1.393034	0.003424
1317.135	1.39379	0.003406
1318.356	1.394542	0.003387
1319.577	1.39529	0.003369
1320.797	1.396033	0.003351
1322.018	1.396773	0.003333
1323.239	1.397508	0.003315
1324.459	1.398239	0.003298
1325.68	1.398967	0.00328
1326.901	1.39969	0.003263
1328.122	1.40041	0.003246
1329.342	1.401125	0.003229
1330.563	1.401837	0.003212
1331.784	1.402545	0.003195
1333.004	1.403249	0.003179
1334.225	1.403949	0.003162
1335.446	1.404646	0.003146
1336.666	1.405339	0.00313
1337.887	1.406028	0.003114
1339.108	1.406713	0.003097
1340.329	1.407395	0.003082
1341.549	1.408074	0.003066
1342.77	1.408748	0.00305
1343.991	1.409419	0.003035
1345.211	1.410087	0.00302
1346.432	1.410751	0.003004
1347.653	1.411412	0.002989
1348.873	1.412069	0.002974
1350.094	1.412723	0.002959
1351.315	1.413374	0.002944
1352.536	1.414021	0.00293
1353.756	1.414665	0.002915
1354.977	1.415306	0.002901
1356.198	1.415943	0.002886
1357.418	1.416577	0.002872
1358.639	1.417208	0.002858
1359.86	1.417836	0.002844
1361.08	1.41846	0.00283
1362.301	1.419081	0.002816
1363.522	1.4197	0.002803
1364.743	1.420315	0.002789
1365.963	1.420927	0.002776
1367.184	1.421536	0.002762
1368.405	1.422142	0.002749
1369.625	1.422745	0.002736
1370.846	1.423345	0.002723
1372.067	1.423942	0.00271
1373.287	1.424536	0.002697
1374.508	1.425128	0.002684
1375.729	1.425716	0.002671
1376.95	1.426301	0.002659
1378.17	1.426884	0.002646
1379.391	1.427464	0.002634
1380.612	1.428041	0.002621
1381.832	1.428615	0.002609
1383.053	1.429186	0.002597
1384.274	1.429755	0.002585
1385.494	1.430321	0.002573
1386.715	1.430884	0.002561
1387.936	1.431445	0.002549
1389.157	1.432002	0.002537
1390.377	1.432558	0.002526
1391.598	1.43311	0.002514
1392.819	1.43366	0.002502
1394.039	1.434208	0.002491
1395.26	1.434752	0.00248
1396.481	1.435295	0.002468
1397.701	1.435835	0.002457
1398.922	1.436372	0.002446
1400.143	1.436906	0.002435
1401.364	1.437439	0.002424
1402.584	1.437968	0.002413
1403.805	1.438496	0.002402
1405.026	1.439021	0.002391
1406.246	1.439543	0.002381
1407.467	1.440063	0.00237
1408.688	1.440581	0.00236
1409.908	1.441096	0.002349
1411.129	1.441609	0.002339
1412.35	1.44212	0.002328
1413.571	1.442628	0.002318
1414.791	1.443134	0.002308
1416.012	1.443638	0.002298
1417.233	1.444139	0.002288
1418.453	1.444638	0.002278
1419.674	1.445135	0.002268
1420.895	1.44563	0.002258
1422.115	1.446123	0.002248
1423.336	1.446613	0.002239
1424.557	1.447101	0.002229
1425.778	1.447587	0.002219
1426.998	1.448071	0.00221
1428.219	1.448552	0.0022
1429.44	1.449032	0.002191
1430.66	1.449509	0.002182
1431.881	1.449985	0.002172
1433.102	1.450458	0.002163
1434.322	1.450929	0.002154
1435.543	1.451398	0.002145
1436.764	1.451865	0.002136
1437.985	1.452331	0.002127
1439.205	1.452794	0.002118
1440.426	1.453255	0.002109
1441.647	1.453714	0.0021
1442.867	1.454171	0.002091
1444.088	1.454626	0.002083
1445.309	1.455079	0.002074
1446.529	1.45553	0.002065
1447.75	1.45598	0.002057
1448.971	1.456427	0.002048
1450.192	1.456873	0.00204
1451.412	1.457316	0.002031
1452.633	1.457758	0.002023
1453.854	1.458198	0.002015
1455.074	1.458636	0.002007
1456.295	1.459072	0.001998
1457.516	1.459506	0.00199
1458.736	1.459939	0.001982
1459.957	1.46037	0.001974
1461.178	1.460799	0.001966
1462.399	1.461226	0.001958
1463.619	1.461651	0.00195
1464.84	1.462075	0.001942
1466.061	1.462497	0.001935
1467.281	1.462917	0.001927
1468.502	1.463335	0.001919
1469.723	1.463752	0.001912
1470.943	1.464167	0.001904
1472.164	1.46458	0.001896
1473.385	1.464992	0.001889
1474.606	1.465402	0.001881
1475.826	1.46581	0.001874
1477.047	1.466216	0.001866
1478.268	1.466621	0.001859
1479.488	1.467024	0.001852
1480.709	1.467426	0.001844
1481.93	1.467826	0.001837
1483.15	1.468225	0.00183
1484.371	1.468621	0.001823
1485.592	1.469017	0.001816
1486.813	1.46941	0.001809
1488.033	1.469802	0.001802
1489.254	1.470193	0.001795
1490.475	1.470582	0.001788
1491.695	1.470969	0.001781
1492.916	1.471355	0.001774
1494.137	1.47174	0.001767
1495.357	1.472122	0.001761
1496.578	1.472504	0.001754
1497.799	1.472883	0.001747
1499.02	1.473262	0.00174
1500.24	1.473639	0.001734
1501.461	1.474014	0.001727
1502.682	1.474388	0.001721
1503.902	1.474761	0.001714
1505.123	1.475132	0.001708
1506.344	1.475501	0.001701
1507.564	1.475869	0.001695
1508.785	1.476236	0.001689
1510.006	1.476601	0.001682
1511.227	1.476965	0.001676
1512.447	1.477328	0.00167
1513.668	1.477689	0.001663
1514.889	1.478049	0.001657
1516.109	1.478407	0.001651
1517.33	1.478764	0.001645
1518.551	1.47912	0.001639
1519.771	1.479474	0.001633
1520.992	1.479827	0.001627
1522.213	1.480179	0.001621
1523.434	1.480529	0.001615
1524.654	1.480878	0.001609
1525.875	1.481226	0.001603
1527.096	1.481572	0.001597
1528.316	1.481917	0.001591
1529.537	1.482261	0.001585
1530.758	1.482603	0.00158
1531.978	1.482945	0.001574
1533.199	1.483284	0.001568
1534.42	1.483623	0.001563
1535.641	1.483961	0.001557
1536.861	1.484297	0.001551
1538.082	1.484632	0.001546
1539.303	1.484965	0.00154
1540.523	1.485298	0.001535
1541.744	1.485629	0.001529
1542.965	1.485959	0.001524
1544.185	1.486288	0.001518
1545.406	1.486616	0.001513
1546.627	1.486942	0.001507
1547.848	1.487267	0.001502
1549.068	1.487591	0.001497
1550.289	1.487914	0.001491
1551.51	1.488236	0.001486
1552.73	1.488556	0.001481
1553.951	1.488876	0.001476
1555.172	1.489194	0.001471
1556.392	1.489511	0.001465
1557.613	1.489827	0.00146
1558.834	1.490142	0.001455
1560.055	1.490455	0.00145
1561.275	1.490768	0.001445
1562.496	1.491079	0.00144
1563.717	1.491389	0.001435
1564.937	1.491699	0.00143
1566.158	1.492007	0.001425
1567.379	1.492314	0.00142
1568.599	1.49262	0.001415
1569.82	1.492924	0.00141
1571.041	1.493228	0.001406
1572.262	1.493531	0.001401
1573.482	1.493833	0.001396
1574.703	1.494133	0.001391
1575.924	1.494433	0.001386
1577.144	1.494731	0.001382
1578.365	1.495028	0.001377
1579.586	1.495325	0.001372
1580.806	1.49562	0.001368
1582.027	1.495915	0.001363
1583.248	1.496208	0.001358
1584.469	1.4965	0.001354
1585.689	1.496791	0.001349
1586.91	1.497082	0.001345
1588.131	1.497371	0.00134
1589.351	1.497659	0.001336
1590.572	1.497947	0.001331
1591.793	1.498233	0.001327
1593.013	1.498518	0.001322
1594.234	1.498802	0.001318
1595.455	1.499086	0.001313
1596.676	1.499368	0.001309
1597.896	1.49965	0.001305
1599.117	1.49993	0.0013
1600.338	1.50021	0.001296
1601.558	1.500488	0.001292
1602.779	1.500766	0.001288
1604	1.501042	0.001283
1605.22	1.501318	0.001279
1606.441	1.501593	0.001275
1607.662	1.501867	0.001271
1608.883	1.50214	0.001266
1610.103	1.502412	0.001262
1611.324	1.502683	0.001258
1612.545	1.502953	0.001254
1613.765	1.503223	0.00125
1614.986	1.503491	0.001246
1616.207	1.503759	0.001242
1617.427	1.504025	0.001238
1618.648	1.504291	0.001234
1619.869	1.504556	0.00123
1621.09	1.50482	0.001226
1622.31	1.505083	0.001222
1623.531	1.505345	0.001218
1624.752	1.505607	0.001214
1625.972	1.505867	0.00121
1627.193	1.506127	0.001206
1628.414	1.506386	0.001203
1629.634	1.506644	0.001199
1630.855	1.506901	0.001195
1632.076	1.507157	0.001191
1633.297	1.507413	0.001187
1634.517	1.507668	0.001184
1635.738	1.507921	0.00118
1636.959	1.508174	0.001176
1638.179	1.508427	0.001172
1639.4	1.508678	0.001169
1640.621	1.508929	0.001165
1641.841	1.509178	0.001161
1643.062	1.509427	0.001158
1644.283	1.509675	0.001154
1645.504	1.509923	0.00115
1646.724	1.510169	0.001147
1647.945	1.510415	0.001143
1649.166	1.51066	0.00114
1650.386	1.510904	0.001136
1651.607	1.511147	0.001133
1652.828	1.51139	0.001129
1654.048	1.511632	0.001125
1655.269	1.511873	0.001122
1656.49	1.512114	0.001119
1657.711	1.512353	0.001115
1658.931	1.512592	0.001112
1660.152	1.51283	0.001108
1661.373	1.513067	0.001105
1662.593	1.513304	0.001101
1663.814	1.51354	0.001098
1665.035	1.513775	0.001095
1666.255	1.514009	0.001091
1667.476	1.514243	0.001088
1668.697	1.514476	0.001085
1669.918	1.514708	0.001081
1671.138	1.514939	0.001078
1672.359	1.51517	0.001075
1673.58	1.5154	0.001072
1674.8	1.515629	0.001068
1676.021	1.515858	0.001065
1677.242	1.516086	0.001062
1678.462	1.516313	0.001059
1679.683	1.516539	0.001055
1680.904	1.516765	0.001052
1682.125	1.51699	0.001049
1683.345	1.517215	0.001046
1684.566	1.517438	0.001043
1685.787	1.517661	0.00104
1687.007	1.517884	0.001037
1688.228	1.518105	0.001033
1689.449	1.518326	0.00103
1690.669	1.518546	0.001027
1691.89	1.518766	0.001024
1693.111	1.518985	0.001021
1694.332	1.519203	0.001018
1695.552	1.519421	0.001015
1696.773	1.519638	0.001012
1697.994	1.519854	0.001009
1699.214	1.52007	0.001006
1700.435	1.520285	0.001003
1701.656	1.520499	0.001
1702.876	1.520713	0.000997
1704.097	1.520926	0.000994
1705.318	1.521139	0.000991
1706.539	1.52135	0.000989
1707.759	1.521562	0.000986
1708.98	1.521772	0.000983
1710.201	1.521982	0.00098
1711.421	1.522191	0.000977
1712.642	1.5224	0.000974
1713.863	1.522608	0.000972
1715.083	1.522815	0.000969
1716.304	1.523022	0.000966
1717.525	1.523228	0.000963
1718.746	1.523434	0.00096
1719.966	1.523639	0.000958
1721.187	1.523843	0.000955
1722.408	1.524047	0.000952
1723.628	1.52425	0.000949
1724.849	1.524453	0.000946
1726.07	1.524655	0.000944
1727.29	1.524856	0.000941
1728.511	1.525057	0.000938
1729.732	1.525257	0.000936
1730.953	1.525457	0.000933
1732.173	1.525656	0.00093
1733.394	1.525854	0.000928
1734.615	1.526052	0.000925
1735.835	1.52625	0.000922
1737.056	1.526446	0.00092
1738.277	1.526643	0.000917
1739.497	1.526838	0.000915
1740.718	1.527033	0.000912
1741.939	1.527228	0.000909
1743.16	1.527422	0.000907
1744.38	1.527615	0.000904
1745.601	1.527808	0.000902
1746.822	1.528	0.000899
1748.042	1.528192	0.000897
1749.263	1.528383	0.000894
1750.484	1.528574	0.000892
1751.704	1.528764	0.000889
1752.925	1.528953	0.000887
1754.146	1.529142	0.000884
1755.367	1.529331	0.000882
1756.587	1.529519	0.000879
1757.808	1.529706	0.000877
1759.029	1.529893	0.000875
1760.249	1.530079	0.000872
1761.47	1.530265	0.00087
1762.691	1.53045	0.000867
1763.911	1.530635	0.000865
1765.132	1.530819	0.000862
1766.353	1.531003	0.00086
1767.574	1.531186	0.000858
1768.794	1.531369	0.000855
1770.015	1.531551	0.000853
1771.236	1.531733	0.000851
1772.456	1.531914	0.000848
1773.677	1.532095	0.000846
1774.898	1.532275	0.000844
1776.118	1.532454	0.000842
1777.339	1.532634	0.000839
1778.56	1.532812	0.000837
1779.781	1.53299	0.000835
1781.001	1.533168	0.000832
1782.222	1.533345	0.00083
1783.443	1.533522	0.000828
1784.663	1.533698	0.000826
1785.884	1.533874	0.000823
1787.105	1.534049	0.000821
1788.325	1.534224	0.000819
1789.546	1.534398	0.000817
1790.767	1.534572	0.000815
1791.988	1.534745	0.000812
1793.208	1.534918	0.00081
1794.429	1.53509	0.000808
1795.65	1.535262	0.000806
1796.87	1.535434	0.000804
1798.091	1.535604	0.000802
1799.312	1.535775	0.000799
1800.532	1.535945	0.000797
1801.753	1.536115	0.000795
1802.974	1.536284	0.000793
1804.195	1.536452	0.000791
1805.415	1.53662	0.000789
1806.636	1.536788	0.000787
1807.857	1.536955	0.000785
1809.077	1.537122	0.000783
1810.298	1.537289	0.000781
1811.519	1.537455	0.000778
1812.739	1.53762	0.000776
1813.96	1.537785	0.000774
1815.181	1.53795	0.000772
1816.402	1.538114	0.00077
1817.622	1.538278	0.000768
1818.843	1.538441	0.000766
1820.064	1.538604	0.000764
1821.284	1.538766	0.000762
1822.505	1.538928	0.00076
1823.726	1.53909	0.000758
1824.946	1.539251	0.000756
1826.167	1.539411	0.000754
1827.388	1.539572	0.000752
1828.609	1.539732	0.000751
1829.829	1.539891	0.000748
1831.05	1.54005	0.000747
1832.271	1.540209	0.000745
1833.491	1.540367	0.000743
1834.712	1.540524	0.000741
1835.933	1.540682	0.000739
1837.153	1.540839	0.000737
1838.374	1.540995	0.000735
1839.595	1.541151	0.000733
1840.816	1.541307	0.000731
1842.036	1.541462	0.00073
1843.257	1.541617	0.000728
1844.478	1.541772	0.000726
1845.698	1.541926	0.000724
1846.919	1.542079	0.000722
1848.14	1.542233	0.00072
1849.36	1.542385	0.000718
1850.581	1.542538	0.000716
1851.802	1.54269	0.000715
1853.023	1.542842	0.000713
1854.243	1.542993	0.000711
1855.464	1.543144	0.000709
1856.685	1.543294	0.000707
1857.905	1.543444	0.000706
1859.126	1.543594	0.000704
1860.347	1.543743	0.000702
1861.567	1.543892	0.0007
1862.788	1.544041	0.000699
1864.009	1.544189	0.000697
1865.23	1.544337	0.000695
1866.45	1.544484	0.000693
1867.671	1.544631	0.000692
1868.892	1.544778	0.00069
1870.112	1.544924	0.000688
1871.333	1.545071	0.000686
1872.554	1.545216	0.000685
1873.774	1.545361	0.000683
1874.995	1.545506	0.000681
1876.216	1.54565	0.00068
1877.437	1.545795	0.000678
1878.657	1.545938	0.000676
1879.878	1.546082	0.000675
1881.099	1.546225	0.000673
1882.319	1.546367	0.000671
1883.54	1.54651	0.00067
1884.761	1.546652	0.000668
1885.981	1.546793	0.000666
1887.202	1.546934	0.000665
1888.423	1.547075	0.000663
1889.644	1.547216	0.000661
1890.864	1.547356	0.00066
1892.085	1.547496	0.000658
1893.306	1.547635	0.000656
1894.526	1.547774	0.000655
1895.747	1.547913	0.000653
1896.968	1.548051	0.000652
1898.188	1.54819	0.00065
1899.409	1.548327	0.000648
1900.63	1.548465	0.000647
1901.851	1.548602	0.000645
1903.071	1.548738	0.000644
1904.292	1.548875	0.000642
1905.513	1.549011	0.000641
1906.733	1.549147	0.000639
1907.954	1.549282	0.000638
1909.175	1.549417	0.000636
1910.395	1.549552	0.000635
1911.616	1.549686	0.000633
1912.837	1.54982	0.000631
1914.058	1.549954	0.00063
1915.278	1.550087	0.000628
1916.499	1.55022	0.000627
1917.72	1.550353	0.000625
1918.94	1.550485	0.000624
1920.161	1.550617	0.000622
1921.382	1.550749	0.000621
1922.602	1.55088	0.000619
1923.823	1.551012	0.000618
1925.044	1.551142	0.000616
1926.265	1.551273	0.000615
1927.485	1.551403	0.000614
1928.706	1.551533	0.000612
1929.927	1.551662	0.000611
1931.147	1.551792	0.000609
1932.368	1.551921	0.000608
1933.589	1.552049	0.000606
1934.809	1.552177	0.000605
1936.03	1.552305	0.000603
1937.251	1.552433	0.000602
1938.472	1.55256	0.0006
1939.692	1.552687	0.000599
1940.913	1.552814	0.000598
1942.134	1.552941	0.000596
1943.354	1.553067	0.000595
1944.575	1.553192	0.000593
1945.796	1.553318	0.000592
1947.016	1.553443	0.000591
1948.237	1.553568	0.000589
1949.458	1.553693	0.000588
1950.679	1.553817	0.000586
1951.899	1.553941	0.000585
1953.12	1.554065	0.000584
1954.341	1.554188	0.000582
1955.561	1.554312	0.000581
1956.782	1.554435	0.00058
1958.003	1.554557	0.000578
1959.223	1.554679	0.000577
1960.444	1.554801	0.000576
1961.665	1.554923	0.000574
1962.886	1.555045	0.000573
1964.106	1.555166	0.000572
1965.327	1.555287	0.00057
1966.548	1.555407	0.000569
1967.768	1.555527	0.000568
1968.989	1.555647	0.000566
1970.21	1.555767	0.000565
1971.43	1.555887	0.000564
1972.651	1.556006	0.000562
1973.872	1.556125	0.000561
1975.093	1.556243	0.00056
1976.313	1.556362	0.000559
1977.534	1.55648	0.000557
1978.755	1.556597	0.000556
1979.975	1.556715	0.000555
1981.196	1.556832	0.000554
1982.417	1.556949	0.000552
1983.637	1.557066	0.000551
1984.858	1.557182	0.00055
1986.079	1.557298	0.000548
1987.3	1.557414	0.000547
1988.52	1.55753	0.000546
1989.741	1.557645	0.000545
1990.962	1.55776	0.000544
1992.182	1.557875	0.000542
1993.403	1.55799	0.000541
1994.624	1.558104	0.00054
1995.844	1.558218	0.000539
1997.065	1.558332	0.000537
1998.286	1.558445	0.000536
1999.507	1.558558	0.000535
2000.727	1.558671	0.000534
2001.948	1.558784	0.000533
2003.169	1.558897	0.000531
2004.389	1.559009	0.00053
2005.61	1.559121	0.000529
2006.831	1.559232	0.000528
2008.051	1.559344	0.000527
2009.272	1.559455	0.000525
2010.493	1.559566	0.000524
2011.714	1.559677	0.000523
2012.934	1.559787	0.000522
2014.155	1.559897	0.000521
2015.376	1.560007	0.00052
2016.596	1.560117	0.000518
2017.817	1.560226	0.000517
2019.038	1.560336	0.000516
2020.258	1.560445	0.000515
2021.479	1.560553	0.000514
2022.7	1.560662	0.000513
2023.921	1.56077	0.000512
2025.141	1.560878	0.00051
2026.362	1.560986	0.000509
2027.583	1.561093	0.000508
2028.803	1.5612	0.000507
2030.024	1.561307	0.000506
2031.245	1.561414	0.000505
2032.465	1.561521	0.000504
2033.686	1.561627	0.000503
2034.907	1.561733	0.000502
2036.128	1.561839	0.000501
2037.348	1.561944	0.000499
2038.569	1.56205	0.000498
2039.79	1.562155	0.000497
2041.01	1.56226	0.000496
2042.231	1.562364	0.000495
2043.452	1.562469	0.000494
2044.672	1.562573	0.000493
2045.893	1.562677	0.000492
2047.114	1.562781	0.000491
2048.335	1.562884	0.00049
2049.555	1.562987	0.000489
2050.776	1.56309	0.000487
2051.997	1.563193	0.000487
2053.217	1.563296	0.000485
2054.438	1.563398	0.000484
2055.659	1.5635	0.000483
2056.879	1.563602	0.000482
2058.1	1.563704	0.000481
2059.321	1.563805	0.00048
2060.542	1.563907	0.000479
2061.762	1.564008	0.000478
2062.983	1.564108	0.000477
2064.204	1.564209	0.000476
2065.424	1.564309	0.000475
2066.645	1.564409	0.000474
2067.866	1.564509	0.000473
2069.086	1.564609	0.000472
2070.307	1.564708	0.000471
2071.528	1.564808	0.00047
2072.749	1.564907	0.000469
2073.969	1.565006	0.000468
2075.19	1.565104	0.000467
2076.411	1.565203	0.000466
2077.631	1.565301	0.000465
2078.852	1.565399	0.000464
2080.073	1.565497	0.000463
2081.293	1.565594	0.000462
2082.514	1.565692	0.000461
2083.735	1.565789	0.00046
2084.956	1.565886	0.000459
2086.176	1.565982	0.000458
2087.397	1.566079	0.000457
2088.618	1.566175	0.000456
2089.838	1.566271	0.000455
2091.059	1.566367	0.000454
2092.28	1.566463	0.000453
2093.5	1.566558	0.000452
2094.721	1.566654	0.000451
2095.942	1.566749	0.00045
2097.163	1.566844	0.000449
2098.383	1.566938	0.000449
2099.604	1.567033	0.000448
2100.825	1.567127	0.000447
2102.045	1.567221	0.000446
2103.266	1.567315	0.000445
2104.487	1.567409	0.000444
2105.707	1.567502	0.000443
2106.928	1.567595	0.000442
2108.149	1.567688	0.000441
2109.37	1.567781	0.00044
2110.59	1.567874	0.000439
2111.811	1.567966	0.000438
2113.032	1.568059	0.000438
2114.252	1.568151	0.000437
2115.473	1.568243	0.000436
2116.694	1.568335	0.000435
2117.914	1.568426	0.000434
2119.135	1.568517	0.000433
2120.356	1.568609	0.000432
2121.577	1.568699	0.000431
2122.797	1.56879	0.00043
2124.018	1.568881	0.000429
2125.239	1.568971	0.000429
2126.459	1.569061	0.000428
2127.68	1.569151	0.000427
2128.901	1.569241	0.000426
2130.121	1.569331	0.000425
2131.342	1.56942	0.000424
2132.563	1.56951	0.000423
2133.784	1.569599	0.000422
2135.004	1.569687	0.000422
2136.225	1.569776	0.000421
2137.446	1.569865	0.00042
2138.666	1.569953	0.000419
2139.887	1.570041	0.000418
2141.108	1.570129	0.000417
2142.328	1.570217	0.000416
2143.549	1.570305	0.000415
2144.77	1.570392	0.000415
2145.991	1.570479	0.000414
2147.211	1.570566	0.000413
2148.432	1.570653	0.000412
2149.653	1.57074	0.000411
2150.873	1.570826	0.000411
2152.094	1.570913	0.00041
2153.315	1.570999	0.000409
2154.535	1.571085	0.000408
2155.756	1.571171	0.000407
2156.977	1.571256	0.000406
2158.198	1.571342	0.000406
2159.418	1.571427	0.000405
2160.639	1.571512	0.000404
2161.86	1.571597	0.000403
2163.08	1.571682	0.000402
2164.301	1.571766	0.000402
2165.522	1.571851	0.000401
2166.742	1.571935	0.0004
2167.963	1.572019	0.000399
2169.184	1.572103	0.000398
2170.405	1.572187	0.000397
2171.625	1.57227	0.000397
2172.846	1.572354	0.000396
2174.067	1.572437	0.000395
2175.287	1.57252	0.000394
2176.508	1.572603	0.000393
2177.729	1.572686	0.000393
2178.949	1.572768	0.000392
2180.17	1.572851	0.000391
2181.391	1.572933	0.00039
2182.612	1.573015	0.00039
2183.832	1.573097	0.000389
2185.053	1.573179	0.000388
2186.274	1.57326	0.000387
2187.494	1.573342	0.000387
2188.715	1.573423	0.000386
2189.936	1.573504	0.000385
2191.156	1.573585	0.000384
2192.377	1.573666	0.000384
2193.598	1.573746	0.000383
2194.819	1.573827	0.000382
2196.039	1.573907	0.000381
2197.26	1.573987	0.00038
2198.481	1.574067	0.00038
2199.701	1.574147	0.000379
2200.922	1.574226	0.000378
2202.143	1.574306	0.000377
2203.363	1.574385	0.000377
2204.584	1.574464	0.000376
2205.805	1.574543	0.000375
2207.026	1.574622	0.000375
2208.246	1.574701	0.000374
2209.467	1.574779	0.000373
2210.688	1.574858	0.000372
2211.908	1.574936	0.000372
2213.129	1.575014	0.000371
2214.35	1.575092	0.00037
2215.57	1.57517	0.000369
2216.791	1.575247	0.000369
2218.012	1.575325	0.000368
2219.233	1.575402	0.000367
2220.453	1.575479	0.000367
2221.674	1.575556	0.000366
2222.895	1.575633	0.000365
2224.115	1.57571	0.000365
2225.336	1.575786	0.000364
2226.557	1.575863	0.000363
2227.777	1.575939	0.000362
2228.998	1.576015	0.000362
2230.219	1.576091	0.000361
2231.44	1.576167	0.00036
2232.66	1.576243	0.00036
2233.881	1.576318	0.000359
2235.102	1.576393	0.000358
2236.322	1.576469	0.000357
2237.543	1.576544	0.000357
2238.764	1.576619	0.000356
2239.984	1.576693	0.000356
2241.205	1.576768	0.000355
2242.426	1.576843	0.000354
2243.647	1.576917	0.000354
2244.867	1.576991	0.000353
2246.088	1.577065	0.000352
2247.309	1.577139	0.000351
2248.529	1.577213	0.000351
2249.75	1.577286	0.00035
2250.971	1.57736	0.000349
2252.191	1.577433	0.000349
2253.412	1.577507	0.000348
2254.633	1.57758	0.000347
2255.854	1.577653	0.000347
2257.074	1.577725	0.000346
2258.295	1.577798	0.000346
2259.516	1.57787	0.000345
2260.736	1.577943	0.000344
2261.957	1.578015	0.000343
2263.178	1.578087	0.000343
2264.398	1.578159	0.000342
2265.619	1.578231	0.000342
2266.84	1.578303	0.000341
2268.061	1.578374	0.00034
2269.281	1.578446	0.00034
2270.502	1.578517	0.000339
2271.723	1.578588	0.000338
2272.943	1.578659	0.000338
2274.164	1.57873	0.000337
2275.385	1.578801	0.000337
2276.605	1.578871	0.000336
2277.826	1.578942	0.000335
2279.047	1.579012	0.000335
2280.268	1.579082	0.000334
2281.488	1.579152	0.000333
2282.709	1.579222	0.000333
2283.93	1.579292	0.000332
2285.15	1.579362	0.000331
2286.371	1.579431	0.000331
2287.592	1.579501	0.00033
2288.812	1.57957	0.00033
2290.033	1.579639	0.000329
2291.254	1.579708	0.000328
2292.475	1.579777	0.000328
2293.695	1.579846	0.000327
2294.916	1.579914	0.000327
2296.137	1.579983	0.000326
2297.357	1.580051	0.000325
2298.578	1.580119	0.000325
2299.799	1.580187	0.000324
2301.019	1.580255	0.000324
2302.24	1.580323	0.000323
2303.461	1.580391	0.000322
2304.682	1.580459	0.000322
2305.902	1.580526	0.000321
2307.123	1.580593	0.000321
2308.344	1.580661	0.00032
2309.564	1.580728	0.000319
2310.785	1.580795	0.000319
2312.006	1.580862	0.000318
2313.226	1.580928	0.000318
2314.447	1.580995	0.000317
2315.668	1.581061	0.000316
2316.889	1.581128	0.000316
2318.109	1.581194	0.000315
2319.33	1.58126	0.000315
2320.551	1.581326	0.000314
2321.771	1.581392	0.000314
2322.992	1.581458	0.000313
2324.213	1.581523	0.000312
2325.433	1.581589	0.000312
2326.654	1.581654	0.000311
2327.875	1.58172	0.000311
2329.096	1.581785	0.00031
2330.316	1.58185	0.00031
2331.537	1.581915	0.000309
2332.758	1.581979	0.000308
2333.978	1.582044	0.000308
2335.199	1.582109	0.000307
2336.42	1.582173	0.000307
2337.64	1.582237	0.000306
2338.861	1.582301	0.000306
2340.082	1.582366	0.000305
2341.303	1.58243	0.000305
2342.523	1.582493	0.000304
2343.744	1.582557	0.000304
2344.965	1.582621	0.000303
2346.185	1.582684	0.000303
2347.406	1.582748	0.000302
2348.627	1.582811	0.000301
2349.847	1.582874	0.000301
2351.068	1.582937	0.0003
2352.289	1.583	0.0003
2353.51	1.583063	0.000299
2354.73	1.583125	0.000299
2355.951	1.583188	0.000298
2357.172	1.583251	0.000298
2358.392	1.583313	0.000297
2359.613	1.583375	0.000297
2360.834	1.583437	0.000296
2362.054	1.583499	0.000296
2363.275	1.583561	0.000295
2364.496	1.583623	0.000295
2365.717	1.583685	0.000294
2366.937	1.583746	0.000293
2368.158	1.583808	0.000293
2369.379	1.583869	0.000292
2370.599	1.58393	0.000292
2371.82	1.583991	0.000291
2373.041	1.584052	0.000291
2374.261	1.584113	0.00029
2375.482	1.584174	0.00029
2376.703	1.584235	0.000289
2377.924	1.584295	0.000289
2379.144	1.584356	0.000288
2380.365	1.584416	0.000288
2381.586	1.584476	0.000287
2382.806	1.584537	0.000287
2384.027	1.584597	0.000286
2385.248	1.584657	0.000286
2386.468	1.584717	0.000285
2387.689	1.584776	0.000285
2388.91	1.584836	0.000284
2390.131	1.584895	0.000284
2391.351	1.584955	0.000283
2392.572	1.585014	0.000283
2393.793	1.585073	0.000282
2395.013	1.585132	0.000282
2396.234	1.585191	0.000281
2397.455	1.58525	0.000281
2398.675	1.585309	0.00028
2399.896	1.585368	0.00028
2401.117	1.585426	0.000279
2402.338	1.585485	0.000279
2403.558	1.585543	0.000278
2404.779	1.585601	0.000278
2406	1.58566	0.000277
2407.22	1.585718	0.000277
2408.441	1.585775	0.000276
2409.662	1.585833	0.000276
2410.882	1.585891	0.000275
2412.103	1.585949	0.000275
2413.324	1.586006	0.000274
2414.545	1.586064	0.000274
2415.765	1.586121	0.000273
2416.986	1.586178	0.000273
2418.207	1.586236	0.000273
2419.427	1.586293	0.000272
2420.648	1.586349	0.000272
2421.869	1.586406	0.000271
2423.089	1.586463	0.000271
2424.31	1.58652	0.00027
2425.531	1.586576	0.00027
2426.752	1.586633	0.000269
2427.972	1.586689	0.000269
2429.193	1.586745	0.000268
2430.414	1.586802	0.000268
2431.634	1.586858	0.000267
2432.855	1.586914	0.000267
2434.076	1.586969	0.000266
2435.296	1.587025	0.000266
2436.517	1.587081	0.000266
2437.738	1.587136	0.000265
2438.959	1.587192	0.000265
2440.179	1.587247	0.000264
2441.4	1.587303	0.000264
2442.621	1.587358	0.000263
2443.841	1.587413	0.000263
2445.062	1.587468	0.000262
2446.283	1.587523	0.000262
2447.503	1.587578	0.000262
2448.724	1.587632	0.000261
2449.945	1.587687	0.000261
2451.166	1.587741	0.00026
2452.386	1.587796	0.00026
2453.607	1.58785	0.000259
2454.828	1.587905	0.000259
2456.048	1.587959	0.000258
2457.269	1.588013	0.000258
2458.49	1.588067	0.000258
2459.71	1.588121	0.000257
2460.931	1.588174	0.000257
2462.152	1.588228	0.000256
2463.373	1.588282	0.000256
2464.593	1.588335	0.000255
2465.814	1.588389	0.000255
2467.035	1.588442	0.000255
2468.255	1.588495	0.000254
2469.476	1.588548	0.000254
2470.697	1.588601	0.000253
2471.917	1.588655	0.000253
2473.138	1.588707	0.000252
2474.359	1.58876	0.000252
2475.58	1.588813	0.000252
2476.8	1.588866	0.000251
2478.021	1.588918	0.000251
2479.242	1.58897	0.00025
2480.462	1.589023	0.00025
2481.683	1.589075	0.00025
2482.904	1.589127	0.000249
2484.124	1.589179	0.000249
2485.345	1.589231	0.000248
2486.566	1.589283	0.000248
2487.787	1.589335	0.000247
2489.007	1.589387	0.000247
2490.228	1.589438	0.000247
2491.449	1.58949	0.000246
2492.669	1.589541	0.000246
2493.89	1.589593	0.000245
2495.111	1.589644	0.000245
2496.331	1.589695	0.000245
2497.552	1.589746	0.000244
2498.773	1.589797	0.000244
2499.994	1.589849	0.000243
2501.214	1.589899	0.000243
2502.435	1.58995	0.000242
2503.656	1.590001	0.000242
2504.876	1.590051	0.000242
2506.097	1.590102	0.000241
2507.318	1.590152	0.000241
2508.538	1.590203	0.000241
2509.759	1.590253	0.00024
2510.98	1.590303	0.00024
2512.201	1.590353	0.000239
2513.421	1.590403	0.000239
2514.642	1.590453	0.000239
2515.863	1.590503	0.000238
2517.083	1.590553	0.000238
2518.304	1.590603	0.000237
2519.525	1.590652	0.000237
2520.745	1.590702	0.000237
2521.966	1.590751	0.000236
2523.187	1.590801	0.000236
2524.408	1.59085	0.000236
2525.628	1.590899	0.000235
2526.849	1.590948	0.000235
2528.07	1.590997	0.000234
2529.29	1.591046	0.000234
2530.511	1.591095	0.000234
2531.732	1.591144	0.000233
2532.952	1.591193	0.000233
2534.173	1.591241	0.000232
2535.394	1.59129	0.000232
2536.615	1.591338	0.000232
2537.835	1.591387	0.000231
2539.056	1.591435	0.000231
2540.277	1.591483	0.00023
2541.497	1.591532	0.00023
2542.718	1.59158	0.00023
2543.939	1.591628	0.000229
2545.159	1.591676	0.000229
2546.38	1.591723	0.000229
2547.601	1.591771	0.000228
2548.822	1.591819	0.000228
2550.042	1.591866	0.000228
2551.263	1.591914	0.000227
2552.484	1.591962	0.000227
2553.704	1.592009	0.000226
2554.925	1.592056	0.000226
2556.146	1.592103	0.000226
2557.366	1.592151	0.000225
2558.587	1.592198	0.000225
2559.808	1.592245	0.000225
2561.029	1.592292	0.000224
2562.249	1.592338	0.000224
2563.47	1.592385	0.000224
2564.691	1.592432	0.000223
2565.911	1.592479	0.000223
2567.132	1.592525	0.000223
2568.353	1.592571	0.000222
2569.573	1.592618	0.000222
2570.794	1.592664	0.000221
2572.015	1.59271	0.000221
2573.236	1.592757	0.000221
2574.456	1.592803	0.00022
2575.677	1.592849	0.00022
2576.898	1.592895	0.00022
2578.118	1.592941	0.000219
2579.339	1.592986	0.000219
2580.56	1.593032	0.000219
2581.78	1.593078	0.000218
2583.001	1.593123	0.000218
2584.222	1.593169	0.000218
2585.443	1.593214	0.000217
2586.663	1.59326	0.000217
2587.884	1.593305	0.000217
2589.105	1.59335	0.000216
2590.325	1.593395	0.000216
2591.546	1.59344	0.000215
2592.767	1.593485	0.000215
2593.987	1.59353	0.000215
2595.208	1.593575	0.000215
2596.429	1.59362	0.000214
2597.65	1.593665	0.000214
2598.87	1.593709	0.000213
2600.091	1.593754	0.000213
2601.312	1.593798	0.000213
2602.532	1.593843	0.000213
2603.753	1.593887	0.000212
2604.974	1.593931	0.000212
2606.194	1.593976	0.000211
2607.415	1.59402	0.000211
2608.636	1.594064	0.000211
2609.857	1.594108	0.000211
2611.077	1.594152	0.00021
2612.298	1.594196	0.00021
2613.519	1.59424	0.000209
2614.739	1.594283	0.000209
2615.96	1.594327	0.000209
2617.181	1.59437	0.000209
2618.401	1.594414	0.000208
2619.622	1.594458	0.000208
2620.843	1.594501	0.000207
2622.064	1.594544	0.000207
2623.284	1.594587	0.000207
2624.505	1.594631	0.000207
2625.726	1.594674	0.000206
2626.946	1.594717	0.000206
2628.167	1.59476	0.000206
2629.388	1.594803	0.000205
2630.608	1.594846	0.000205
2631.829	1.594888	0.000205
2633.05	1.594931	0.000204
2634.271	1.594974	0.000204
2635.491	1.595016	0.000204
2636.712	1.595059	0.000203
2637.933	1.595101	0.000203
2639.153	1.595144	0.000203
2640.374	1.595186	0.000202
2641.595	1.595228	0.000202
2642.815	1.59527	0.000202
2644.036	1.595312	0.000202
2645.257	1.595355	0.000201
2646.478	1.595396	0.000201
2647.698	1.595438	0.000201
2648.919	1.59548	0.0002
2650.14	1.595522	0.0002
2651.36	1.595564	0.0002
2652.581	1.595605	0.000199
2653.802	1.595647	0.000199
2655.022	1.595688	0.000199
2656.243	1.59573	0.000198
2657.464	1.595771	0.000198
2658.685	1.595813	0.000198
2659.905	1.595854	0.000198
2661.126	1.595895	0.000197
2662.347	1.595936	0.000197
2663.567	1.595977	0.000197
2664.788	1.596018	0.000196
2666.009	1.596059	0.000196
2667.229	1.5961	0.000196
2668.45	1.596141	0.000195
2669.671	1.596182	0.000195
2670.892	1.596223	0.000195
2672.112	1.596263	0.000194
2673.333	1.596304	0.000194
2674.554	1.596344	0.000194
2675.774	1.596385	0.000194
2676.995	1.596425	0.000193
2678.216	1.596465	0.000193
2679.436	1.596506	0.000193
2680.657	1.596546	0.000192
2681.878	1.596586	0.000192
2683.099	1.596626	0.000192
2684.319	1.596666	0.000192
2685.54	1.596706	0.000191
2686.761	1.596746	0.000191
2687.981	1.596786	0.000191
2689.202	1.596826	0.00019
2690.423	1.596865	0.00019
2691.643	1.596905	0.00019
2692.864	1.596945	0.00019
2694.085	1.596984	0.000189
2695.306	1.597024	0.000189
2696.526	1.597063	0.000189
2697.747	1.597102	0.000188
2698.968	1.597142	0.000188
2700.188	1.597181	0.000188
2701.409	1.59722	0.000188
2702.63	1.597259	0.000187
2703.85	1.597298	0.000187
2705.071	1.597337	0.000187
2706.292	1.597376	0.000186
2707.513	1.597415	0.000186
2708.733	1.597454	0.000186
2709.954	1.597493	0.000186
2711.175	1.597532	0.000185
2712.395	1.59757	0.000185
2713.616	1.597609	0.000185
2714.837	1.597647	0.000184
2716.057	1.597686	0.000184
2717.278	1.597724	0.000184
2718.499	1.597762	0.000184
2719.72	1.597801	0.000183
2720.94	1.597839	0.000183
2722.161	1.597877	0.000183
2723.382	1.597915	0.000183
2724.602	1.597953	0.000182
2725.823	1.597991	0.000182
2727.044	1.598029	0.000182
2728.264	1.598067	0.000181
2729.485	1.598105	0.000181
2730.706	1.598143	0.000181
2731.927	1.598181	0.000181
2733.147	1.598218	0.00018
2734.368	1.598256	0.00018
2735.589	1.598294	0.00018
2736.809	1.598331	0.00018
2738.03	1.598368	0.000179
2739.251	1.598406	0.000179
2740.471	1.598443	0.000179
2741.692	1.59848	0.000179
2742.913	1.598518	0.000178
2744.134	1.598555	0.000178
2745.354	1.598592	0.000178
2746.575	1.598629	0.000177
2747.796	1.598666	0.000177
2749.016	1.598703	0.000177
2750.237	1.59874	0.000177
2751.458	1.598777	0.000177
2752.678	1.598814	0.000176
2753.899	1.59885	0.000176
2755.12	1.598887	0.000176
2756.341	1.598924	0.000175
2757.561	1.59896	0.000175
2758.782	1.598997	0.000175
2760.003	1.599033	0.000175
2761.223	1.599069	0.000174
2762.444	1.599106	0.000174
2763.665	1.599142	0.000174
2764.885	1.599178	0.000174
2766.106	1.599215	0.000173
2767.327	1.599251	0.000173
2768.548	1.599287	0.000173
2769.768	1.599323	0.000173
2770.989	1.599359	0.000172
2772.21	1.599395	0.000172
2773.43	1.599431	0.000172
2774.651	1.599466	0.000172
2775.872	1.599502	0.000171
2777.092	1.599538	0.000171
2778.313	1.599574	0.000171
2779.534	1.599609	0.000171
2780.755	1.599645	0.00017
2781.975	1.59968	0.00017
2783.196	1.599716	0.00017
2784.417	1.599751	0.00017
2785.637	1.599787	0.000169
2786.858	1.599822	0.000169
2788.079	1.599857	0.000169
2789.299	1.599892	0.000169
2790.52	1.599927	0.000168
2791.741	1.599962	0.000168
2792.962	1.599998	0.000168
2794.182	1.600033	0.000168
2795.403	1.600067	0.000167
2796.624	1.600102	0.000167
2797.844	1.600137	0.000167
2799.065	1.600172	0.000167
2800.286	1.600207	0.000167
2801.506	1.600241	0.000166
2802.727	1.600276	0.000166
2803.948	1.600311	0.000166
2805.169	1.600345	0.000166
2806.389	1.60038	0.000165
2807.61	1.600414	0.000165
2808.831	1.600448	0.000165
2810.051	1.600483	0.000165
2811.272	1.600517	0.000164
2812.493	1.600551	0.000164
2813.713	1.600586	0.000164
2814.934	1.60062	0.000164
2816.155	1.600654	0.000163
2817.376	1.600688	0.000163
2818.596	1.600722	0.000163
2819.817	1.600756	0.000163
2821.038	1.60079	0.000163
2822.258	1.600824	0.000162
2823.479	1.600857	0.000162
2824.7	1.600891	0.000162
2825.92	1.600925	0.000162
2827.141	1.600958	0.000161
2828.362	1.600992	0.000161
2829.583	1.601026	0.000161
2830.803	1.601059	0.000161
2832.024	1.601093	0.00016
2833.245	1.601126	0.00016
2834.465	1.601159	0.00016
2835.686	1.601193	0.00016
2836.907	1.601226	0.00016
2838.127	1.601259	0.000159
2839.348	1.601292	0.000159
2840.569	1.601326	0.000159
2841.79	1.601359	0.000159
2843.01	1.601392	0.000158
2844.231	1.601425	0.000158
2845.452	1.601458	0.000158
2846.672	1.60149	0.000158
2847.893	1.601523	0.000158
2849.114	1.601556	0.000157
2850.334	1.601589	0.000157
2851.555	1.601622	0.000157
2852.776	1.601654	0.000157
2853.997	1.601687	0.000156
2855.217	1.601719	0.000156
2856.438	1.601752	0.000156
2857.659	1.601784	0.000156
2858.879	1.601817	0.000156
2860.1	1.601849	0.000155
2861.321	1.601882	0.000155
2862.541	1.601914	0.000155
2863.762	1.601946	0.000155
2864.983	1.601978	0.000154
2866.204	1.60201	0.000154
2867.424	1.602043	0.000154
2868.645	1.602075	0.000154
2869.866	1.602107	0.000154
2871.086	1.602139	0.000153
2872.307	1.602171	0.000153
2873.528	1.602203	0.000153
2874.748	1.602234	0.000153
2875.969	1.602266	0.000152
2877.19	1.602298	0.000152
2878.411	1.60233	0.000152
2879.631	1.602361	0.000152
2880.852	1.602393	0.000152
2882.073	1.602425	0.000152
2883.293	1.602456	0.000151
2884.514	1.602488	0.000151
2885.735	1.602519	0.000151
2886.955	1.60255	0.000151
2888.176	1.602582	0.00015
2889.397	1.602613	0.00015
2890.618	1.602644	0.00015
2891.838	1.602675	0.00015
2893.059	1.602707	0.00015
2894.28	1.602738	0.000149
2895.5	1.602769	0.000149
2896.721	1.6028	0.000149
2897.942	1.602831	0.000149
2899.162	1.602862	0.000149
2900.383	1.602893	0.000148
2901.604	1.602924	0.000148
2902.825	1.602955	0.000148
2904.045	1.602985	0.000148
2905.266	1.603016	0.000148
2906.487	1.603047	0.000147
2907.707	1.603078	0.000147
2908.928	1.603108	0.000147
2910.149	1.603139	0.000147
2911.369	1.603169	0.000146
2912.59	1.6032	0.000146
2913.811	1.60323	0.000146
2915.032	1.603261	0.000146
2916.252	1.603291	0.000146
2917.473	1.603321	0.000146
2918.694	1.603352	0.000145
2919.914	1.603382	0.000145
2921.135	1.603412	0.000145
2922.356	1.603442	0.000145
2923.576	1.603472	0.000144
2924.797	1.603502	0.000144
2926.018	1.603532	0.000144
2927.239	1.603562	0.000144
2928.459	1.603592	0.000144
2929.68	1.603622	0.000144
2930.901	1.603652	0.000143
2932.121	1.603682	0.000143
2933.342	1.603712	0.000143
2934.563	1.603742	0.000143
2935.783	1.603771	0.000143
2937.004	1.603801	0.000142
2938.225	1.60383	0.000142
2939.446	1.60386	0.000142
2940.666	1.60389	0.000142
2941.887	1.603919	0.000142
2943.108	1.603949	0.000141
2944.328	1.603978	0.000141
2945.549	1.604007	0.000141
2946.77	1.604037	0.000141
2947.99	1.604066	0.000141
2949.211	1.604095	0.00014
2950.432	1.604125	0.00014
2951.653	1.604154	0.00014
2952.873	1.604183	0.00014
2954.094	1.604212	0.00014
2955.315	1.604241	0.000139
2956.535	1.60427	0.000139
2957.756	1.604299	0.000139
2958.977	1.604328	0.000139
2960.197	1.604357	0.000139
2961.418	1.604386	0.000139
2962.639	1.604415	0.000138
2963.86	1.604443	0.000138
2965.08	1.604472	0.000138
2966.301	1.604501	0.000138
2967.522	1.60453	0.000138
2968.742	1.604558	0.000137
2969.963	1.604587	0.000137
2971.184	1.604615	0.000137
2972.404	1.604644	0.000137
2973.625	1.604672	0.000137
2974.846	1.604701	0.000137
2976.067	1.604729	0.000136
2977.287	1.604758	0.000136
2978.508	1.604786	0.000136
2979.729	1.604814	0.000136
2980.949	1.604843	0.000136
2982.17	1.604871	0.000135
2983.391	1.604899	0.000135
2984.611	1.604927	0.000135
2985.832	1.604955	0.000135
2987.053	1.604983	0.000135
2988.274	1.605011	0.000135
2989.494	1.605039	0.000134
2990.715	1.605067	0.000134
2991.936	1.605095	0.000134
2993.156	1.605123	0.000134
2994.377	1.605151	0.000134
2995.598	1.605179	0.000133
2996.818	1.605206	0.000133
2998.039	1.605234	0.000133
2999.26	1.605262	0.000133
3000.481	1.605289	0.000133
3001.701	1.605317	0.000133
3002.922	1.605345	0.000132
3004.143	1.605372	0.000132
3005.363	1.6054	0.000132
3006.584	1.605427	0.000132
3007.805	1.605455	0.000132
3009.025	1.605482	0.000132
3010.246	1.605509	0.000131
3011.467	1.605537	0.000131
3012.688	1.605564	0.000131
3013.908	1.605591	0.000131
3015.129	1.605618	0.000131
3016.35	1.605646	0.000131
3017.57	1.605673	0.00013
3018.791	1.6057	0.00013
3020.012	1.605727	0.00013
3021.232	1.605754	0.00013
3022.453	1.605781	0.00013
3023.674	1.605808	0.000129
3024.895	1.605835	0.000129
3026.115	1.605862	0.000129
3027.336	1.605889	0.000129
3028.557	1.605915	0.000129
3029.777	1.605942	0.000129
3030.998	1.605969	0.000129
3032.219	1.605996	0.000128
3033.439	1.606022	0.000128
3034.66	1.606049	0.000128
3035.881	1.606076	0.000128
3037.102	1.606102	0.000128
3038.322	1.606129	0.000127
3039.543	1.606155	0.000127
3040.764	1.606182	0.000127
3041.984	1.606208	0.000127
3043.205	1.606235	0.000127
3044.426	1.606261	0.000127
3045.646	1.606287	0.000127
3046.867	1.606313	0.000126
3048.088	1.60634	0.000126
3049.309	1.606366	0.000126
3050.529	1.606392	0.000126
3051.75	1.606418	0.000126
3052.971	1.606444	0.000125
3054.191	1.606471	0.000125
3055.412	1.606497	0.000125
3056.633	1.606523	0.000125
3057.853	1.606549	0.000125
3059.074	1.606575	0.000125
3060.295	1.606601	0.000125
3061.516	1.606626	0.000124
3062.736	1.606652	0.000124
3063.957	1.606678	0.000124
3065.178	1.606704	0.000124
3066.398	1.60673	0.000124
3067.619	1.606755	0.000124
3068.84	1.606781	0.000123
3070.06	1.606807	0.000123
3071.281	1.606832	0.000123
3072.502	1.606858	0.000123
3073.723	1.606884	0.000123
3074.943	1.606909	0.000123
3076.164	1.606935	0.000123
3077.385	1.60696	0.000122
3078.605	1.606985	0.000122
3079.826	1.607011	0.000122
3081.047	1.607036	0.000122
3082.267	1.607062	0.000122
3083.488	1.607087	0.000122
3084.709	1.607112	0.000121
3085.93	1.607137	0.000121
3087.15	1.607162	0.000121
3088.371	1.607188	0.000121
3089.592	1.607213	0.000121
3090.812	1.607238	0.000121
3092.033	1.607263	0.00012
3093.254	1.607288	0.00012
3094.474	1.607313	0.00012
3095.695	1.607338	0.00012
3096.916	1.607363	0.00012
3098.137	1.607388	0.00012
3099.357	1.607413	0.00012
3100.578	1.607437	0.000119
3101.799	1.607462	0.000119
3103.019	1.607487	0.000119
3104.24	1.607512	0.000119
3105.461	1.607536	0.000119
3106.681	1.607561	0.000119
3107.902	1.607586	0.000119
3109.123	1.60761	0.000118
3110.344	1.607635	0.000118
3111.564	1.60766	0.000118
3112.785	1.607684	0.000118
3114.006	1.607709	0.000118
3115.226	1.607733	0.000118
3116.447	1.607757	0.000117
3117.668	1.607782	0.000117
3118.888	1.607806	0.000117
3120.109	1.607831	0.000117
3121.33	1.607855	0.000117
3122.551	1.607879	0.000117
3123.771	1.607903	0.000116
3124.992	1.607928	0.000116
3126.213	1.607952	0.000116
3127.433	1.607976	0.000116
3128.654	1.608	0.000116
3129.875	1.608024	0.000116
3131.095	1.608048	0.000116
3132.316	1.608072	0.000115
3133.537	1.608096	0.000115
3134.758	1.60812	0.000115
3135.978	1.608144	0.000115
3137.199	1.608168	0.000115
3138.42	1.608192	0.000115
3139.64	1.608216	0.000115
3140.861	1.60824	0.000114
3142.082	1.608263	0.000114
3143.302	1.608287	0.000114
3144.523	1.608311	0.000114
3145.744	1.608335	0.000114
3146.965	1.608358	0.000114
3148.185	1.608382	0.000114
3149.406	1.608405	0.000113
3150.627	1.608429	0.000113
3151.847	1.608453	0.000113
3153.068	1.608476	0.000113
3154.289	1.6085	0.000113
3155.509	1.608523	0.000113
3156.73	1.608546	0.000113
3157.951	1.60857	0.000112
3159.172	1.608593	0.000112
3160.392	1.608617	0.000112
3161.613	1.60864	0.000112
3162.834	1.608663	0.000112
3164.054	1.608686	0.000112
3165.275	1.60871	0.000112
3166.496	1.608733	0.000111
3167.716	1.608756	0.000111
3168.937	1.608779	0.000111
3170.158	1.608802	0.000111
3171.379	1.608825	0.000111
3172.599	1.608848	0.000111
3173.82	1.608871	0.000111
3175.041	1.608894	0.00011
3176.261	1.608917	0.00011
3177.482	1.60894	0.00011
3178.703	1.608963	0.00011
3179.923	1.608986	0.00011
3181.144	1.609009	0.00011
3182.365	1.609032	0.00011
3183.586	1.609055	0.00011
3184.806	1.609077	0.000109
3186.027	1.6091	0.000109
3187.248	1.609123	0.000109
3188.468	1.609145	0.000109
3189.689	1.609168	0.000109
3190.91	1.609191	0.000109
3192.13	1.609213	0.000109
3193.351	1.609236	0.000108
3194.572	1.609258	0.000108
3195.793	1.609281	0.000108
3197.013	1.609303	0.000108
3198.234	1.609326	0.000108
3199.455	1.609348	0.000108
3200.675	1.609371	0.000108
3201.896	1.609393	0.000108
3203.117	1.609415	0.000107
3204.337	1.609438	0.000107
3205.558	1.60946	0.000107
3206.779	1.609482	0.000107
3208	1.609505	0.000107
3209.22	1.609527	0.000107
3210.441	1.609549	0.000107
3211.662	1.609571	0.000107
3212.882	1.609593	0.000106
3214.103	1.609615	0.000106
3215.324	1.609637	0.000106
3216.544	1.609659	0.000106
3217.765	1.609681	0.000106
3218.986	1.609703	0.000106
3220.207	1.609725	0.000106
3221.427	1.609747	0.000106
3222.648	1.609769	0.000105
3223.869	1.609791	0.000105
3225.089	1.609813	0.000105
3226.31	1.609835	0.000105
3227.531	1.609857	0.000105
3228.751	1.609878	0.000105
3229.972	1.6099	0.000105
3231.193	1.609922	0.000105
3232.414	1.609944	0.000104
3233.634	1.609965	0.000104
3234.855	1.609987	0.000104
3236.076	1.610008	0.000104
3237.296	1.61003	0.000104
3238.517	1.610052	0.000104
3239.738	1.610073	0.000104
3240.958	1.610095	0.000104
3242.179	1.610116	0.000103
3243.4	1.610138	0.000103
3244.621	1.610159	0.000103
3245.841	1.61018	0.000103
3247.062	1.610202	0.000103
3248.283	1.610223	0.000103
3249.503	1.610245	0.000103
3250.724	1.610266	0.000103
3251.945	1.610287	0.000102
3253.165	1.610308	0.000102
3254.386	1.61033	0.000102
3255.607	1.610351	0.000102
3256.828	1.610372	0.000102
3258.048	1.610393	0.000102
3259.269	1.610414	0.000102
3260.49	1.610435	0.000102
3261.71	1.610456	0.000101
3262.931	1.610477	0.000101
3264.152	1.610498	0.000101
3265.372	1.610519	0.000101
3266.593	1.61054	0.000101
3267.814	1.610561	0.000101
3269.035	1.610582	0.000101
3270.255	1.610603	0.000101
3271.476	1.610624	0.0001
3272.697	1.610645	0.0001
3273.917	1.610666	0.0001
3275.138	1.610687	0.0001
3276.359	1.610707	0.0001
3277.579	1.610728	0.0001
3278.8	1.610749	0.0001
3280.021	1.610769	0.0001
3281.242	1.61079	0.000099
3282.462	1.610811	0.000099
3283.683	1.610831	0.000099
3284.904	1.610852	0.000099
3286.124	1.610873	0.000099
3287.345	1.610893	0.000099
3288.566	1.610914	0.000099
3289.786	1.610934	0.000099
3291.007	1.610955	0.000099
3292.228	1.610975	0.000098
3293.449	1.610995	0.000098
3294.669	1.611016	0.000098
3295.89	1.611036	0.000098
3297.111	1.611057	0.000098
3298.331	1.611077	0.000098
3299.552	1.611097	0.000098
3300.773	1.611117	0.000098
3301.993	1.611138	0.000097
3303.214	1.611158	0.000097
3304.435	1.611178	0.000097
3305.656	1.611198	0.000097
3306.876	1.611218	0.000097
3308.097	1.611239	0.000097
3309.318	1.611259	0.000097
3310.538	1.611279	0.000097
3311.759	1.611299	0.000096
3312.98	1.611319	0.000096
3314.2	1.611339	0.000096
3315.421	1.611359	0.000096
3316.642	1.611379	0.000096
3317.863	1.611399	0.000096
3319.083	1.611419	0.000096
3320.304	1.611439	0.000096
3321.525	1.611458	0.000096
3322.745	1.611478	0.000095
3323.966	1.611498	0.000095
3325.187	1.611518	0.000095
3326.407	1.611538	0.000095
3327.628	1.611557	0.000095
3328.849	1.611577	0.000095
3330.07	1.611597	0.000095
3331.29	1.611617	0.000095
3332.511	1.611636	0.000095
3333.732	1.611656	0.000094
3334.952	1.611676	0.000094
3336.173	1.611695	0.000094
3337.394	1.611715	0.000094
3338.614	1.611734	0.000094
3339.835	1.611754	0.000094
3341.056	1.611773	0.000094
3342.277	1.611793	0.000094
3343.497	1.611812	0.000094
3344.718	1.611832	0.000093
3345.939	1.611851	0.000093
3347.159	1.61187	0.000093
3348.38	1.61189	0.000093
3349.601	1.611909	0.000093
3350.821	1.611928	0.000093
3352.042	1.611948	0.000093
3353.263	1.611967	0.000093
3354.484	1.611986	0.000093
3355.704	1.612005	0.000092
3356.925	1.612025	0.000092
3358.146	1.612044	0.000092
3359.366	1.612063	0.000092
3360.587	1.612082	0.000092
3361.808	1.612101	0.000092
3363.028	1.61212	0.000092
3364.249	1.612139	0.000092
3365.47	1.612158	0.000092
3366.691	1.612177	0.000092
3367.911	1.612197	0.000091
3369.132	1.612215	0.000091
3370.353	1.612234	0.000091
3371.573	1.612253	0.000091
3372.794	1.612272	0.000091
3374.015	1.612291	0.000091
3375.235	1.61231	0.000091
3376.456	1.612329	0.000091
3377.677	1.612348	0.000091
3378.898	1.612367	0.00009
3380.118	1.612385	0.00009
3381.339	1.612404	0.00009
3382.56	1.612423	0.00009
3383.78	1.612442	0.00009
3385.001	1.61246	0.00009
3386.222	1.612479	0.00009
3387.442	1.612498	0.00009
3388.663	1.612516	0.00009
3389.884	1.612535	0.00009
3391.105	1.612553	0.000089
3392.325	1.612572	0.000089
3393.546	1.612591	0.000089
3394.767	1.612609	0.000089
3395.987	1.612628	0.000089
3397.208	1.612646	0.000089
3398.429	1.612664	0.000089
3399.649	1.612683	0.000089
3400.87	1.612701	0.000089
3402.091	1.61272	0.000089
3403.312	1.612738	0.000088
3404.532	1.612756	0.000088
3405.753	1.612775	0.000088
3406.974	1.612793	0.000088
3408.194	1.612811	0.000088
3409.415	1.61283	0.000088
3410.636	1.612848	0.000088
3411.856	1.612866	0.000088
3413.077	1.612884	0.000088
3414.298	1.612903	0.000088
3415.519	1.612921	0.000087
3416.739	1.612939	0.000087
3417.96	1.612957	0.000087
3419.181	1.612975	0.000087
3420.401	1.612993	0.000087
3421.622	1.613011	0.000087
3422.843	1.613029	0.000087
3424.063	1.613047	0.000087
3425.284	1.613065	0.000087
3426.505	1.613083	0.000087
3427.726	1.613101	0.000086
3428.946	1.613119	0.000086
3430.167	1.613137	0.000086
3431.388	1.613155	0.000086
3432.608	1.613173	0.000086
3433.829	1.613191	0.000086
3435.05	1.613208	0.000086
3436.27	1.613226	0.000086
3437.491	1.613244	0.000086
3438.712	1.613262	0.000086
3439.933	1.61328	0.000086
3441.153	1.613297	0.000085
3442.374	1.613315	0.000085
3443.595	1.613333	0.000085
3444.815	1.613351	0.000085
3446.036	1.613368	0.000085
3447.257	1.613386	0.000085
3448.477	1.613403	0.000085
3449.698	1.613421	0.000085
3450.919	1.613438	0.000085
3452.14	1.613456	0.000085
3453.36	1.613474	0.000084
3454.581	1.613491	0.000084
3455.802	1.613509	0.000084
3457.022	1.613526	0.000084
3458.243	1.613544	0.000084
3459.464	1.613561	0.000084
3460.684	1.613578	0.000084
3461.905	1.613596	0.000084
3463.126	1.613613	0.000084
3464.347	1.613631	0.000084
3465.567	1.613648	0.000084
3466.788	1.613665	0.000083
3468.009	1.613683	0.000083
3469.229	1.6137	0.000083
3470.45	1.613717	0.000083
3471.671	1.613734	0.000083
3472.891	1.613752	0.000083
3474.112	1.613769	0.000083
3475.333	1.613786	0.000083
3476.554	1.613803	0.000083
3477.774	1.61382	0.000083
3478.995	1.613837	0.000083
3480.216	1.613854	0.000082
3481.436	1.613871	0.000082
3482.657	1.613889	0.000082
3483.878	1.613906	0.000082
3485.098	1.613923	0.000082
3486.319	1.61394	0.000082
3487.54	1.613957	0.000082
3488.761	1.613973	0.000082
3489.981	1.613991	0.000082
3491.202	1.614007	0.000082
3492.423	1.614024	0.000082
3493.643	1.614041	0.000081
3494.864	1.614058	0.000081
3496.085	1.614075	0.000081
3497.305	1.614092	0.000081
3498.526	1.614109	0.000081
3499.747	1.614125	0.000081
3500.968	1.614142	0.000081
3502.188	1.614159	0.000081
3503.409	1.614176	0.000081
3504.63	1.614192	0.000081
3505.85	1.614209	0.000081
3507.071	1.614226	0.00008
3508.292	1.614243	0.00008
3509.512	1.614259	0.00008
3510.733	1.614276	0.00008
3511.954	1.614293	0.00008
3513.175	1.614309	0.00008
3514.395	1.614326	0.00008
3515.616	1.614342	0.00008
3516.837	1.614359	0.00008
3518.057	1.614375	0.00008
3519.278	1.614392	0.00008
3520.499	1.614408	0.000079
3521.719	1.614425	0.000079
3522.94	1.614441	0.000079
3524.161	1.614458	0.000079
3525.382	1.614474	0.000079
3526.602	1.61449	0.000079
3527.823	1.614507	0.000079
3529.044	1.614523	0.000079
3530.264	1.61454	0.000079
3531.485	1.614556	0.000079
3532.706	1.614572	0.000079
3533.926	1.614588	0.000079
3535.147	1.614605	0.000078
3536.368	1.614621	0.000078
3537.589	1.614637	0.000078
3538.809	1.614653	0.000078
3540.03	1.61467	0.000078
3541.251	1.614686	0.000078
3542.471	1.614702	0.000078
3543.692	1.614718	0.000078
3544.913	1.614734	0.000078
3546.133	1.61475	0.000078
3547.354	1.614766	0.000078
3548.575	1.614782	0.000077
3549.796	1.614798	0.000077
3551.016	1.614815	0.000077
3552.237	1.61483	0.000077
3553.458	1.614846	0.000077
3554.678	1.614863	0.000077
3555.899	1.614878	0.000077
3557.12	1.614894	0.000077
3558.34	1.61491	0.000077
3559.561	1.614926	0.000077
3560.782	1.614942	0.000077
3562.003	1.614958	0.000077
3563.223	1.614974	0.000076
3564.444	1.61499	0.000076
3565.665	1.615006	0.000076
3566.885	1.615021	0.000076
3568.106	1.615037	0.000076
3569.327	1.615053	0.000076
3570.547	1.615069	0.000076
3571.768	1.615085	0.000076
3572.989	1.6151	0.000076
3574.21	1.615116	0.000076
3575.43	1.615132	0.000076
3576.651	1.615147	0.000076
3577.872	1.615163	0.000075
3579.092	1.615179	0.000075
3580.313	1.615194	0.000075
3581.534	1.61521	0.000075
3582.754	1.615225	0.000075
3583.975	1.615241	0.000075
3585.196	1.615257	0.000075
3586.417	1.615272	0.000075
3587.637	1.615288	0.000075
3588.858	1.615303	0.000075
3590.079	1.615319	0.000075
3591.299	1.615334	0.000075
3592.52	1.61535	0.000074
3593.741	1.615365	0.000074
3594.961	1.61538	0.000074
3596.182	1.615396	0.000074
3597.403	1.615411	0.000074
3598.624	1.615426	0.000074
3599.844	1.615442	0.000074
3601.065	1.615457	0.000074
3602.286	1.615473	0.000074
3603.506	1.615488	0.000074
3604.727	1.615503	0.000074
3605.948	1.615518	0.000074
3607.168	1.615534	0.000073
3608.389	1.615549	0.000073
3609.61	1.615564	0.000073
3610.831	1.615579	0.000073
3612.051	1.615595	0.000073
3613.272	1.61561	0.000073
3614.493	1.615625	0.000073
3615.713	1.61564	0.000073
3616.934	1.615655	0.000073
3618.155	1.61567	0.000073
3619.375	1.615685	0.000073
3620.596	1.6157	0.000073
3621.817	1.615715	0.000073
3623.038	1.61573	0.000072
3624.258	1.615745	0.000072
3625.479	1.615761	0.000072
3626.7	1.615775	0.000072
3627.92	1.61579	0.000072
3629.141	1.615805	0.000072
3630.362	1.61582	0.000072
3631.582	1.615835	0.000072
3632.803	1.61585	0.000072
3634.024	1.615865	0.000072
3635.245	1.61588	0.000072
3636.465	1.615895	0.000072
3637.686	1.61591	0.000072
3638.907	1.615924	0.000071
3640.127	1.615939	0.000071
3641.348	1.615954	0.000071
3642.569	1.615969	0.000071
3643.789	1.615984	0.000071
3645.01	1.615999	0.000071
3646.231	1.616013	0.000071
3647.452	1.616028	0.000071
3648.672	1.616043	0.000071
3649.893	1.616057	0.000071
3651.114	1.616072	0.000071
3652.334	1.616087	0.000071
3653.555	1.616101	0.000071
3654.776	1.616116	0.00007
3655.996	1.616131	0.00007
3657.217	1.616145	0.00007
3658.438	1.61616	0.00007
3659.659	1.616174	0.00007
3660.879	1.616189	0.00007
3662.1	1.616203	0.00007
3663.321	1.616218	0.00007
3664.541	1.616233	0.00007
3665.762	1.616247	0.00007
3666.983	1.616261	0.00007
3668.203	1.616276	0.00007
3669.424	1.61629	0.00007
3670.645	1.616305	0.00007
3671.866	1.616319	0.000069
3673.086	1.616333	0.000069
3674.307	1.616348	0.000069
3675.528	1.616362	0.000069
3676.748	1.616377	0.000069
3677.969	1.616391	0.000069
3679.19	1.616405	0.000069
3680.41	1.61642	0.000069
3681.631	1.616434	0.000069
3682.852	1.616448	0.000069
3684.073	1.616462	0.000069
3685.293	1.616477	0.000069
3686.514	1.616491	0.000069
3687.735	1.616505	0.000068
3688.955	1.616519	0.000068
3690.176	1.616534	0.000068
3691.397	1.616548	0.000068
3692.617	1.616562	0.000068
3693.838	1.616576	0.000068
3695.059	1.61659	0.000068
3696.28	1.616604	0.000068
3697.5	1.616618	0.000068
3698.721	1.616632	0.000068
3699.942	1.616647	0.000068
3701.162	1.616661	0.000068
3702.383	1.616675	0.000068
3703.604	1.616689	0.000068
3704.824	1.616703	0.000068
3706.045	1.616717	0.000067
3707.266	1.616731	0.000067
3708.487	1.616745	0.000067
3709.707	1.616759	0.000067
3710.928	1.616773	0.000067
3712.149	1.616786	0.000067
3713.369	1.6168	0.000067
3714.59	1.616814	0.000067
3715.811	1.616828	0.000067
3717.031	1.616842	0.000067
3718.252	1.616856	0.000067
3719.473	1.61687	0.000067
3720.694	1.616884	0.000067
3721.914	1.616897	0.000067
3723.135	1.616911	0.000066
3724.356	1.616925	0.000066
3725.576	1.616939	0.000066
3726.797	1.616952	0.000066
3728.018	1.616966	0.000066
3729.238	1.61698	0.000066
3730.459	1.616994	0.000066
3731.68	1.617007	0.000066
3732.901	1.617021	0.000066
3734.121	1.617035	0.000066
3735.342	1.617048	0.000066
3736.563	1.617062	0.000066
3737.783	1.617076	0.000066
3739.004	1.617089	0.000066
3740.225	1.617103	0.000066
3741.445	1.617116	0.000065
3742.666	1.61713	0.000065
3743.887	1.617143	0.000065
3745.108	1.617157	0.000065
3746.328	1.61717	0.000065
3747.549	1.617184	0.000065
3748.77	1.617198	0.000065
3749.99	1.617211	0.000065
3751.211	1.617224	0.000065
3752.432	1.617238	0.000065
3753.652	1.617251	0.000065
3754.873	1.617265	0.000065
3756.094	1.617278	0.000065
3757.315	1.617292	0.000065
3758.535	1.617305	0.000065
3759.756	1.617318	0.000064
3760.977	1.617332	0.000064
3762.197	1.617345	0.000064
3763.418	1.617358	0.000064
3764.639	1.617372	0.000064
3765.859	1.617385	0.000064
3767.08	1.617398	0.000064
3768.301	1.617412	0.000064
3769.522	1.617425	0.000064
3770.742	1.617438	0.000064
3771.963	1.617451	0.000064
3773.184	1.617465	0.000064
3774.404	1.617478	0.000064
3775.625	1.617491	0.000064
3776.846	1.617504	0.000064
3778.066	1.617517	0.000064
3779.287	1.61753	0.000063
3780.508	1.617544	0.000063
3781.729	1.617557	0.000063
3782.949	1.61757	0.000063
3784.17	1.617583	0.000063
3785.391	1.617596	0.000063
3786.611	1.617609	0.000063
3787.832	1.617622	0.000063
3789.053	1.617635	0.000063
3790.273	1.617648	0.000063
3791.494	1.617661	0.000063
3792.715	1.617674	0.000063
3793.936	1.617687	0.000063
3795.156	1.6177	0.000063
3796.377	1.617713	0.000063
3797.598	1.617726	0.000063
3798.818	1.617739	0.000062
3800.039	1.617752	0.000062
3801.26	1.617765	0.000062
3802.48	1.617778	0.000062
3803.701	1.617791	0.000062
3804.922	1.617804	0.000062
3806.143	1.617816	0.000062
3807.363	1.617829	0.000062
3808.584	1.617842	0.000062
3809.805	1.617855	0.000062
3811.025	1.617868	0.000062
3812.246	1.617881	0.000062
3813.467	1.617893	0.000062
3814.687	1.617906	0.000062
3815.908	1.617919	0.000062
3817.129	1.617932	0.000062
3818.35	1.617944	0.000061
3819.57	1.617957	0.000061
3820.791	1.61797	0.000061
3822.012	1.617983	0.000061
3823.232	1.617995	0.000061
3824.453	1.618008	0.000061
3825.674	1.618021	0.000061
3826.894	1.618033	0.000061
3828.115	1.618046	0.000061
3829.336	1.618058	0.000061
3830.557	1.618071	0.000061
3831.777	1.618084	0.000061
3832.998	1.618096	0.000061
3834.219	1.618109	0.000061
3835.439	1.618121	0.000061
3836.66	1.618134	0.00006
3837.881	1.618146	0.00006
3839.101	1.618159	0.00006
3840.322	1.618171	0.00006
3841.543	1.618184	0.00006
3842.764	1.618196	0.00006
3843.984	1.618209	0.00006
3845.205	1.618221	0.00006
3846.426	1.618234	0.00006
3847.646	1.618246	0.00006
3848.867	1.618259	0.00006
3850.088	1.618271	0.00006
3851.308	1.618283	0.00006
3852.529	1.618296	0.00006
3853.75	1.618308	0.00006
3854.971	1.61832	0.00006
3856.191	1.618333	0.000059
3857.412	1.618345	0.000059
3858.633	1.618357	0.000059
3859.853	1.61837	0.000059
3861.074	1.618382	0.000059
3862.295	1.618394	0.000059
3863.515	1.618407	0.000059
3864.736	1.618419	0.000059
3865.957	1.618431	0.000059
3867.178	1.618443	0.000059
3868.398	1.618456	0.000059
3869.619	1.618468	0.000059
3870.84	1.61848	0.000059
3872.06	1.618492	0.000059
3873.281	1.618504	0.000059
3874.502	1.618516	0.000059
3875.722	1.618529	0.000059
3876.943	1.618541	0.000059
3878.164	1.618553	0.000059
3879.385	1.618565	0.000058
3880.605	1.618577	0.000058
3881.826	1.618589	0.000058
3883.047	1.618601	0.000058
3884.267	1.618613	0.000058
3885.488	1.618625	0.000058
3886.709	1.618637	0.000058
3887.929	1.618649	0.000058
3889.15	1.618661	0.000058
3890.371	1.618673	0.000058
3891.592	1.618685	0.000058
3892.812	1.618697	0.000058
3894.033	1.618709	0.000058
3895.254	1.618721	0.000058
3896.474	1.618733	0.000058
3897.695	1.618745	0.000058
3898.916	1.618757	0.000058
3900.136	1.618769	0.000058
3901.357	1.618781	0.000057
3902.578	1.618793	0.000057
3903.799	1.618805	0.000057
3905.019	1.618816	0.000057
3906.24	1.618828	0.000057
3907.461	1.61884	0.000057
3908.681	1.618852	0.000057
3909.902	1.618864	0.000057
3911.123	1.618876	0.000057
3912.343	1.618887	0.000057
3913.564	1.618899	0.000057
3914.785	1.618911	0.000057
3916.006	1.618923	0.000057
3917.226	1.618935	0.000057
3918.447	1.618946	0.000057
3919.668	1.618958	0.000057
3920.888	1.61897	0.000057
3922.109	1.618981	0.000056
3923.33	1.618993	0.000056
3924.55	1.619005	0.000056
3925.771	1.619016	0.000056
3926.992	1.619028	0.000056
3928.213	1.61904	0.000056
3929.433	1.619051	0.000056
3930.654	1.619063	0.000056
3931.875	1.619074	0.000056
3933.095	1.619086	0.000056
3934.316	1.619098	0.000056
3935.537	1.619109	0.000056
3936.757	1.619121	0.000056
3937.978	1.619132	0.000056
3939.199	1.619144	0.000056
3940.42	1.619155	0.000056
3941.64	1.619167	0.000056
3942.861	1.619178	0.000056
3944.082	1.61919	0.000056
3945.302	1.619201	0.000055
3946.523	1.619213	0.000055
3947.744	1.619224	0.000055
3948.964	1.619236	0.000055
3950.185	1.619247	0.000055
3951.406	1.619259	0.000055
3952.627	1.61927	0.000055
3953.847	1.619282	0.000055
3955.068	1.619293	0.000055
3956.289	1.619304	0.000055
3957.509	1.619316	0.000055
3958.73	1.619327	0.000055
3959.951	1.619338	0.000055
3961.171	1.61935	0.000055
3962.392	1.619361	0.000055
3963.613	1.619372	0.000055
3964.834	1.619384	0.000055
3966.054	1.619395	0.000055
3967.275	1.619406	0.000055
3968.496	1.619418	0.000054
3969.716	1.619429	0.000054
3970.937	1.61944	0.000054
3972.158	1.619451	0.000054
3973.378	1.619462	0.000054
3974.599	1.619474	0.000054
3975.82	1.619485	0.000054
3977.041	1.619496	0.000054
3978.261	1.619507	0.000054
3979.482	1.619518	0.000054
3980.703	1.61953	0.000054
3981.923	1.619541	0.000054
3983.144	1.619552	0.000054
3984.365	1.619563	0.000054
3985.585	1.619574	0.000054
3986.806	1.619585	0.000054
3988.027	1.619596	0.000054
3989.248	1.619607	0.000053
3990.468	1.619619	0.000053
3991.689	1.61963	0.000053
3992.91	1.619641	0.000053
3994.13	1.619652	0.000053
3995.351	1.619663	0.000053
3996.572	1.619674	0.000053
3997.792	1.619685	0.000053
3999.013	1.619696	0.000053
4000.234	1.619707	0.000053
4001.455	1.619718	0.000053
4002.675	1.619729	0.000053
4003.896	1.61974	0.000053
4005.117	1.619751	0.000053
4006.337	1.619762	0.000053
4007.558	1.619773	0.000053
4008.779	1.619784	0.000053
4009.999	1.619794	0.000053
4011.22	1.619805	0.000053
4012.441	1.619816	0.000053
4013.662	1.619827	0.000052
4014.882	1.619838	0.000052
4016.103	1.619849	0.000052
4017.324	1.61986	0.000052
4018.544	1.61987	0.000052
4019.765	1.619881	0.000052
4020.986	1.619892	0.000052
4022.206	1.619903	0.000052
4023.427	1.619914	0.000052
4024.648	1.619924	0.000052
4025.869	1.619935	0.000052
4027.089	1.619946	0.000052
4028.31	1.619957	0.000052
4029.531	1.619967	0.000052
4030.751	1.619978	0.000052
4031.972	1.619989	0.000052
4033.193	1.62	0.000052
4034.413	1.62001	0.000052
4035.634	1.620021	0.000052
4036.855	1.620032	0.000052
4038.076	1.620042	0.000051
4039.296	1.620053	0.000051
4040.517	1.620064	0.000051
4041.738	1.620074	0.000051
4042.958	1.620085	0.000051
4044.179	1.620096	0.000051
4045.4	1.620106	0.000051
4046.62	1.620117	0.000051
4047.841	1.620127	0.000051
4049.062	1.620138	0.000051
4050.283	1.620149	0.000051
4051.503	1.620159	0.000051
4052.724	1.62017	0.000051
4053.945	1.62018	0.000051
4055.165	1.620191	0.000051
4056.386	1.620201	0.000051
4057.607	1.620212	0.000051
4058.827	1.620222	0.000051
4060.048	1.620233	0.000051
4061.269	1.620243	0.000051
4062.49	1.620254	0.000051
4063.71	1.620264	0.00005
4064.931	1.620275	0.00005
4066.152	1.620285	0.00005
4067.372	1.620296	0.00005
4068.593	1.620306	0.00005
4069.814	1.620316	0.00005
4071.034	1.620327	0.00005
4072.255	1.620337	0.00005
4073.476	1.620347	0.00005
4074.697	1.620358	0.00005
4075.917	1.620368	0.00005
4077.138	1.620379	0.00005
4078.359	1.620389	0.00005
4079.579	1.620399	0.00005
4080.8	1.62041	0.00005
4082.021	1.62042	0.00005
4083.241	1.62043	0.00005
4084.462	1.620441	0.00005
4085.683	1.620451	0.00005
4086.904	1.620461	0.00005
4088.124	1.620471	0.00005
4089.345	1.620482	0.000049
4090.566	1.620492	0.000049
4091.786	1.620502	0.000049
4093.007	1.620512	0.000049
4094.228	1.620523	0.000049
4095.448	1.620533	0.000049
4096.669	1.620543	0.000049
4097.89	1.620553	0.000049
4099.111	1.620563	0.000049
4100.331	1.620574	0.000049
4101.552	1.620584	0.000049
4102.773	1.620594	0.000049
4103.993	1.620604	0.000049
4105.214	1.620614	0.000049
4106.435	1.620624	0.000049
4107.655	1.620634	0.000049
4108.876	1.620644	0.000049
4110.097	1.620655	0.000049
4111.318	1.620665	0.000049
4112.538	1.620675	0.000049
4113.759	1.620685	0.000049
4114.98	1.620695	0.000049
4116.2	1.620705	0.000048
4117.421	1.620715	0.000048
4118.642	1.620725	0.000048
4119.862	1.620735	0.000048
4121.083	1.620745	0.000048
4122.304	1.620755	0.000048
4123.525	1.620765	0.000048
4124.745	1.620775	0.000048
4125.966	1.620785	0.000048
4127.187	1.620795	0.000048
4128.407	1.620805	0.000048
4129.628	1.620815	0.000048
4130.849	1.620825	0.000048
4132.069	1.620835	0.000048
4133.29	1.620845	0.000048
4134.511	1.620854	0.000048
4135.732	1.620864	0.000048
4136.952	1.620874	0.000048
4138.173	1.620884	0.000048
4139.394	1.620894	0.000048
4140.614	1.620904	0.000048
4141.835	1.620914	0.000048
4143.056	1.620924	0.000048
4144.276	1.620933	0.000048
4145.497	1.620943	0.000048
4146.718	1.620953	0.000047
4147.939	1.620963	0.000047
4149.159	1.620973	0.000047
4150.38	1.620983	0.000047
4151.601	1.620992	0.000047
4152.821	1.621002	0.000047
4154.042	1.621012	0.000047
4155.263	1.621022	0.000047
4156.483	1.621031	0.000047
4157.704	1.621041	0.000047
4158.925	1.621051	0.000047
4160.146	1.62106	0.000047
4161.366	1.62107	0.000047
4162.587	1.62108	0.000047
4163.808	1.62109	0.000047
4165.028	1.621099	0.000047
4166.249	1.621109	0.000047
4167.47	1.621119	0.000047
4168.69	1.621128	0.000047
4169.911	1.621138	0.000047
4171.132	1.621148	0.000047
4172.353	1.621157	0.000047
4173.573	1.621167	0.000047
4174.794	1.621176	0.000046
4176.015	1.621186	0.000046
4177.235	1.621196	0.000046
4178.456	1.621205	0.000046
4179.677	1.621215	0.000046
4180.897	1.621224	0.000046
4182.118	1.621234	0.000046
4183.339	1.621243	0.000046
4184.56	1.621253	0.000046
4185.78	1.621263	0.000046
4187.001	1.621272	0.000046
4188.222	1.621282	0.000046
4189.442	1.621291	0.000046
4190.663	1.621301	0.000046
4191.884	1.62131	0.000046
4193.104	1.62132	0.000046
4194.325	1.621329	0.000046
4195.546	1.621338	0.000046
4196.767	1.621348	0.000046
4197.987	1.621357	0.000046
4199.208	1.621367	0.000046
4200.429	1.621376	0.000046
4201.649	1.621386	0.000046
4202.87	1.621395	0.000046
4204.091	1.621405	0.000045
4205.311	1.621414	0.000045
4206.532	1.621423	0.000045
4207.753	1.621433	0.000045
4208.974	1.621442	0.000045
4210.194	1.621451	0.000045
4211.415	1.621461	0.000045
4212.636	1.62147	0.000045
4213.856	1.621479	0.000045
4215.077	1.621489	0.000045
4216.298	1.621498	0.000045
4217.518	1.621507	0.000045
4218.739	1.621517	0.000045
4219.96	1.621526	0.000045
4221.181	1.621535	0.000045
4222.401	1.621544	0.000045
4223.622	1.621554	0.000045
4224.843	1.621563	0.000045
4226.063	1.621572	0.000045
4227.284	1.621582	0.000045
4228.505	1.621591	0.000045
4229.725	1.6216	0.000045
4230.946	1.621609	0.000045
4232.167	1.621618	0.000045
4233.388	1.621628	0.000044
4234.608	1.621637	0.000044
4235.829	1.621646	0.000044
4237.05	1.621655	0.000044
4238.27	1.621664	0.000044
4239.491	1.621673	0.000044
4240.712	1.621683	0.000044
4241.932	1.621692	0.000044
4243.153	1.621701	0.000044
4244.374	1.62171	0.000044
4245.595	1.621719	0.000044
4246.815	1.621728	0.000044
4248.036	1.621737	0.000044
4249.257	1.621746	0.000044
4250.477	1.621755	0.000044
4251.698	1.621765	0.000044
4252.919	1.621774	0.000044
4254.139	1.621783	0.000044
4255.36	1.621792	0.000044
4256.581	1.621801	0.000044
4257.802	1.62181	0.000044
4259.022	1.621819	0.000044
4260.243	1.621828	0.000044
4261.464	1.621837	0.000044
4262.684	1.621846	0.000044
4263.905	1.621855	0.000044
4265.126	1.621864	0.000043
4266.346	1.621873	0.000043
4267.567	1.621882	0.000043
4268.788	1.621891	0.000043
4270.009	1.6219	0.000043
4271.229	1.621909	0.000043
4272.45	1.621918	0.000043
4273.671	1.621927	0.000043
4274.891	1.621935	0.000043
4276.112	1.621945	0.000043
4277.333	1.621953	0.000043
4278.553	1.621962	0.000043
4279.774	1.621971	0.000043
4280.995	1.62198	0.000043
4282.216	1.621989	0.000043
4283.436	1.621998	0.000043
4284.657	1.622007	0.000043
4285.878	1.622015	0.000043
4287.098	1.622024	0.000043
4288.319	1.622033	0.000043
4289.54	1.622042	0.000043
4290.76	1.622051	0.000043
4291.981	1.62206	0.000043
4293.202	1.622069	0.000042
4294.423	1.622077	0.000042
4295.643	1.622086	0.000042
4296.864	1.622095	0.000042
4298.085	1.622104	0.000042
4299.305	1.622112	0.000042
4300.526	1.622121	0.000042
4301.747	1.62213	0.000042
4302.967	1.622139	0.000042
4304.188	1.622147	0.000042
4305.409	1.622156	0.000042
4306.63	1.622165	0.000042
4307.85	1.622174	0.000042
4309.071	1.622182	0.000042
4310.292	1.622191	0.000042
4311.512	1.6222	0.000042
4312.733	1.622208	0.000042
4313.954	1.622217	0.000042
4315.174	1.622226	0.000042
4316.395	1.622234	0.000042
4317.616	1.622243	0.000042
4318.837	1.622252	0.000042
4320.057	1.62226	0.000042
4321.278	1.622269	0.000042
4322.499	1.622277	0.000042
4323.719	1.622286	0.000042
4324.94	1.622295	0.000042
4326.161	1.622303	0.000041
4327.381	1.622312	0.000041
4328.602	1.62232	0.000041
4329.823	1.622329	0.000041
4331.044	1.622338	0.000041
4332.264	1.622346	0.000041
4333.485	1.622355	0.000041
4334.706	1.622363	0.000041
4335.926	1.622372	0.000041
4337.147	1.62238	0.000041
4338.368	1.622389	0.000041
4339.588	1.622397	0.000041
4340.809	1.622406	0.000041
4342.03	1.622414	0.000041
4343.251	1.622423	0.000041
4344.471	1.622431	0.000041
4345.692	1.62244	0.000041
4346.913	1.622448	0.000041
4348.133	1.622457	0.000041
4349.354	1.622465	0.000041
4350.575	1.622474	0.000041
4351.795	1.622482	0.000041
4353.016	1.622491	0.000041
4354.237	1.622499	0.000041
4355.458	1.622507	0.000041
4356.678	1.622516	0.000041
4357.899	1.622524	0.000041
4359.12	1.622533	0.000041
4360.34	1.622541	0.00004
4361.561	1.622549	0.00004
4362.782	1.622558	0.00004
4364.002	1.622566	0.00004
4365.223	1.622574	0.00004
4366.444	1.622583	0.00004
4367.665	1.622591	0.00004
4368.885	1.622599	0.00004
4370.106	1.622608	0.00004
4371.327	1.622616	0.00004
4372.547	1.622625	0.00004
4373.768	1.622633	0.00004
4374.989	1.622641	0.00004
4376.209	1.622649	0.00004
4377.43	1.622658	0.00004
4378.651	1.622666	0.00004
4379.872	1.622674	0.00004
4381.092	1.622682	0.00004
4382.313	1.622691	0.00004
4383.534	1.622699	0.00004
4384.754	1.622707	0.00004
4385.975	1.622715	0.00004
4387.196	1.622724	0.00004
4388.416	1.622732	0.00004
4389.637	1.62274	0.00004
4390.858	1.622748	0.00004
4392.079	1.622757	0.00004
4393.299	1.622765	0.00004
4394.52	1.622773	0.00004
4395.741	1.622781	0.000039
4396.961	1.622789	0.000039
4398.182	1.622797	0.000039
4399.403	1.622806	0.000039
4400.623	1.622814	0.000039
4401.844	1.622822	0.000039
4403.065	1.62283	0.000039
4404.286	1.622838	0.000039
4405.506	1.622846	0.000039
4406.727	1.622854	0.000039
4407.948	1.622862	0.000039
4409.168	1.622871	0.000039
4410.389	1.622879	0.000039
4411.61	1.622887	0.000039
4412.83	1.622895	0.000039
4414.051	1.622903	0.000039
4415.272	1.622911	0.000039
4416.493	1.622919	0.000039
4417.713	1.622927	0.000039
4418.934	1.622935	0.000039
4420.155	1.622943	0.000039
4421.375	1.622951	0.000039
4422.596	1.622959	0.000039
4423.817	1.622967	0.000039
4425.037	1.622975	0.000039
4426.258	1.622983	0.000039
4427.479	1.622991	0.000039
4428.7	1.622999	0.000039
4429.92	1.623007	0.000039
4431.141	1.623015	0.000038
4432.362	1.623023	0.000038
4433.582	1.623031	0.000038
4434.803	1.623039	0.000038
4436.024	1.623047	0.000038
4437.244	1.623055	0.000038
4438.465	1.623063	0.000038
4439.686	1.623071	0.000038
4440.907	1.623079	0.000038
4442.127	1.623087	0.000038
4443.348	1.623095	0.000038
4444.569	1.623103	0.000038
4445.789	1.623111	0.000038
4447.01	1.623118	0.000038
4448.231	1.623126	0.000038
4449.451	1.623134	0.000038
4450.672	1.623142	0.000038
4451.893	1.62315	0.000038
4453.114	1.623158	0.000038
4454.334	1.623166	0.000038
4455.555	1.623173	0.000038
4456.776	1.623181	0.000038
4457.996	1.623189	0.000038
4459.217	1.623197	0.000038
4460.438	1.623205	0.000038
4461.658	1.623212	0.000038
4462.879	1.62322	0.000038
4464.1	1.623228	0.000038
4465.321	1.623236	0.000038
4466.541	1.623244	0.000038
4467.762	1.623251	0.000038
4468.983	1.623259	0.000038
4470.203	1.623267	0.000038
4471.424	1.623275	0.000038
4472.645	1.623282	0.000037
4473.865	1.62329	0.000037
4475.086	1.623298	0.000037
4476.307	1.623306	0.000037
4477.528	1.623313	0.000037
4478.748	1.623321	0.000037
4479.969	1.623329	0.000037
4481.19	1.623337	0.000037
4482.41	1.623344	0.000037
4483.631	1.623352	0.000037
4484.852	1.62336	0.000037
4486.072	1.623367	0.000037
4487.293	1.623375	0.000037
4488.514	1.623383	0.000037
4489.735	1.62339	0.000037
4490.955	1.623398	0.000037
4492.176	1.623406	0.000037
4493.397	1.623413	0.000037
4494.617	1.623421	0.000037
4495.838	1.623428	0.000037
4497.059	1.623436	0.000037
4498.279	1.623444	0.000037
4499.5	1.623451	0.000037
4500.721	1.623459	0.000037
4501.942	1.623466	0.000037
4503.162	1.623474	0.000037
4504.383	1.623482	0.000037
4505.604	1.623489	0.000037
4506.824	1.623497	0.000037
4508.045	1.623504	0.000037
4509.266	1.623512	0.000037
4510.486	1.623519	0.000037
4511.707	1.623527	0.000036
4512.928	1.623534	0.000036
4514.149	1.623542	0.000036
4515.369	1.62355	0.000036
4516.59	1.623557	0.000036
4517.811	1.623565	0.000036
4519.031	1.623572	0.000036
4520.252	1.62358	0.000036
4521.473	1.623587	0.000036
4522.693	1.623595	0.000036
4523.914	1.623602	0.000036
4525.135	1.62361	0.000036
4526.356	1.623617	0.000036
4527.576	1.623624	0.000036
4528.797	1.623632	0.000036
4530.018	1.623639	0.000036
4531.238	1.623647	0.000036
4532.459	1.623654	0.000036
4533.68	1.623662	0.000036
4534.9	1.623669	0.000036
4536.121	1.623677	0.000036
4537.342	1.623684	0.000036
4538.563	1.623691	0.000036
4539.783	1.623699	0.000036
4541.004	1.623706	0.000036
4542.225	1.623713	0.000036
4543.445	1.623721	0.000036
4544.666	1.623728	0.000036
4545.887	1.623736	0.000036
4547.107	1.623743	0.000036
4548.328	1.62375	0.000036
4549.549	1.623758	0.000036
4550.77	1.623765	0.000036
4551.99	1.623772	0.000036
4553.211	1.62378	0.000035
4554.432	1.623787	0.000035
4555.652	1.623794	0.000035
4556.873	1.623802	0.000035
4558.094	1.623809	0.000035
4559.314	1.623816	0.000035
4560.535	1.623824	0.000035
4561.756	1.623831	0.000035
4562.977	1.623838	0.000035
4564.197	1.623845	0.000035
4565.418	1.623853	0.000035
4566.639	1.62386	0.000035
4567.859	1.623867	0.000035
4569.08	1.623874	0.000035
4570.301	1.623882	0.000035
4571.521	1.623889	0.000035
4572.742	1.623896	0.000035
4573.963	1.623903	0.000035
4575.184	1.623911	0.000035
4576.404	1.623918	0.000035
4577.625	1.623925	0.000035
4578.846	1.623932	0.000035
4580.066	1.623939	0.000035
4581.287	1.623947	0.000035
4582.508	1.623954	0.000035
4583.728	1.623961	0.000035
4584.949	1.623968	0.000035
4586.17	1.623975	0.000035
4587.391	1.623982	0.000035
4588.611	1.62399	0.000035
4589.832	1.623997	0.000035
4591.053	1.624004	0.000035
4592.273	1.624011	0.000035
4593.494	1.624018	0.000035
4594.715	1.624025	0.000034
4595.935	1.624032	0.000034
4597.156	1.62404	0.000034
4598.377	1.624047	0.000034
4599.598	1.624054	0.000034
4600.818	1.624061	0.000034
4602.039	1.624068	0.000034
4603.26	1.624075	0.000034
4604.48	1.624082	0.000034
4605.701	1.624089	0.000034
4606.922	1.624096	0.000034
4608.142	1.624103	0.000034
4609.363	1.62411	0.000034
4610.584	1.624117	0.000034
4611.805	1.624124	0.000034
4613.025	1.624131	0.000034
4614.246	1.624138	0.000034
4615.467	1.624146	0.000034
4616.687	1.624153	0.000034
4617.908	1.62416	0.000034
4619.129	1.624167	0.000034
4620.349	1.624174	0.000034
4621.57	1.624181	0.000034
4622.791	1.624188	0.000034
4624.012	1.624195	0.000034
4625.232	1.624202	0.000034
4626.453	1.624208	0.000034
4627.674	1.624215	0.000034
4628.894	1.624222	0.000034
4630.115	1.624229	0.000034
4631.336	1.624236	0.000034
4632.556	1.624243	0.000034
4633.777	1.62425	0.000034
4634.998	1.624257	0.000034
4636.219	1.624264	0.000034
4637.439	1.624271	0.000034
4638.66	1.624278	0.000033
4639.881	1.624285	0.000033
4641.101	1.624292	0.000033
4642.322	1.624299	0.000033
4643.543	1.624305	0.000033
4644.763	1.624312	0.000033
4645.984	1.624319	0.000033
4647.205	1.624326	0.000033
4648.426	1.624333	0.000033
4649.646	1.62434	0.000033
4650.867	1.624347	0.000033
4652.088	1.624354	0.000033
4653.308	1.62436	0.000033
4654.529	1.624367	0.000033
4655.75	1.624374	0.000033
4656.97	1.624381	0.000033
4658.191	1.624388	0.000033
4659.412	1.624395	0.000033
4660.633	1.624401	0.000033
4661.853	1.624408	0.000033
4663.074	1.624415	0.000033
4664.295	1.624422	0.000033
4665.515	1.624429	0.000033
4666.736	1.624435	0.000033
4667.957	1.624442	0.000033
4669.177	1.624449	0.000033
4670.398	1.624456	0.000033
4671.619	1.624463	0.000033
4672.84	1.624469	0.000033
4674.06	1.624476	0.000033
4675.281	1.624483	0.000033
4676.502	1.62449	0.000033
4677.722	1.624496	0.000033
4678.943	1.624503	0.000033
4680.164	1.62451	0.000033
4681.384	1.624516	0.000033
4682.605	1.624523	0.000033
4683.826	1.62453	0.000033
4685.047	1.624537	0.000032
4686.267	1.624543	0.000032
4687.488	1.62455	0.000032
4688.709	1.624557	0.000032
4689.929	1.624563	0.000032
4691.15	1.62457	0.000032
4692.371	1.624577	0.000032
4693.591	1.624583	0.000032
4694.812	1.62459	0.000032
4696.033	1.624597	0.000032
4697.254	1.624603	0.000032
4698.474	1.62461	0.000032
4699.695	1.624617	0.000032
4700.916	1.624623	0.000032
4702.136	1.62463	0.000032
4703.357	1.624637	0.000032
4704.578	1.624643	0.000032
4705.798	1.62465	0.000032
4707.019	1.624656	0.000032
4708.24	1.624663	0.000032
4709.461	1.62467	0.000032
4710.681	1.624676	0.000032
4711.902	1.624683	0.000032
4713.123	1.624689	0.000032
4714.343	1.624696	0.000032
4715.564	1.624703	0.000032
4716.785	1.624709	0.000032
4718.005	1.624716	0.000032
4719.226	1.624722	0.000032
4720.447	1.624729	0.000032
4721.668	1.624735	0.000032
4722.888	1.624742	0.000032
4724.109	1.624748	0.000032
4725.33	1.624755	0.000032
4726.55	1.624761	0.000032
4727.771	1.624768	0.000031
4728.992	1.624775	0.000031
4730.212	1.624781	0.000031
4731.433	1.624788	0.000031
4732.654	1.624794	0.000031
4733.875	1.624801	0.000031
4735.095	1.624807	0.000031
4736.316	1.624814	0.000031
4737.537	1.62482	0.000031
4738.757	1.624826	0.000031
4739.978	1.624833	0.000031
4741.199	1.624839	0.000031
4742.419	1.624846	0.000031
4743.64	1.624852	0.000031
4744.861	1.624859	0.000031
4746.082	1.624865	0.000031
4747.302	1.624872	0.000031
4748.523	1.624878	0.000031
4749.744	1.624884	0.000031
4750.964	1.624891	0.000031
4752.185	1.624897	0.000031
4753.406	1.624904	0.000031
4754.626	1.62491	0.000031
4755.847	1.624917	0.000031
4757.068	1.624923	0.000031
4758.289	1.624929	0.000031
4759.509	1.624936	0.000031
4760.73	1.624942	0.000031
4761.951	1.624949	0.000031
4763.171	1.624955	0.000031
4764.392	1.624961	0.000031
4765.613	1.624968	0.000031
4766.833	1.624974	0.000031
4768.054	1.62498	0.000031
4769.275	1.624987	0.000031
4770.496	1.624993	0.000031
4771.716	1.624999	0.000031
4772.937	1.625006	0.000031
4774.158	1.625012	0.000031
4775.378	1.625018	0.000031
4776.599	1.625025	0.00003
4777.82	1.625031	0.00003
4779.04	1.625037	0.00003
4780.261	1.625044	0.00003
4781.482	1.62505	0.00003
4782.703	1.625056	0.00003
4783.923	1.625062	0.00003
4785.144	1.625069	0.00003
4786.365	1.625075	0.00003
4787.585	1.625081	0.00003
4788.806	1.625087	0.00003
4790.027	1.625094	0.00003
4791.247	1.6251	0.00003
4792.468	1.625106	0.00003
4793.689	1.625112	0.00003
4794.91	1.625119	0.00003
4796.13	1.625125	0.00003
4797.351	1.625131	0.00003
4798.572	1.625137	0.00003
4799.792	1.625144	0.00003
4801.013	1.62515	0.00003
4802.234	1.625156	0.00003
4803.454	1.625162	0.00003
4804.675	1.625168	0.00003
4805.896	1.625175	0.00003
4807.117	1.625181	0.00003
4808.337	1.625187	0.00003
4809.558	1.625193	0.00003
4810.779	1.625199	0.00003
4811.999	1.625206	0.00003
4813.22	1.625212	0.00003
4814.441	1.625218	0.00003
4815.661	1.625224	0.00003
4816.882	1.62523	0.00003
4818.103	1.625236	0.00003
4819.324	1.625242	0.00003
4820.544	1.625249	0.00003
4821.765	1.625255	0.00003
4822.986	1.625261	0.00003
4824.206	1.625267	0.00003
4825.427	1.625273	0.00003
4826.648	1.625279	0.00003
4827.868	1.625285	0.00003
4829.089	1.625291	0.00003
4830.31	1.625298	0.00003
4831.531	1.625304	0.00003
4832.751	1.62531	0.00003
4833.972	1.625316	0.000029
4835.193	1.625322	0.000029
4836.413	1.625328	0.000029
4837.634	1.625334	0.000029
4838.855	1.62534	0.000029
4840.075	1.625346	0.000029
4841.296	1.625352	0.000029
4842.517	1.625358	0.000029
4843.738	1.625364	0.000029
4844.958	1.62537	0.000029
4846.179	1.625376	0.000029
4847.4	1.625383	0.000029
4848.62	1.625389	0.000029
4849.841	1.625395	0.000029
4851.062	1.625401	0.000029
4852.282	1.625407	0.000029
4853.503	1.625413	0.000029
4854.724	1.625419	0.000029
4855.945	1.625425	0.000029
4857.165	1.625431	0.000029
4858.386	1.625437	0.000029
4859.607	1.625443	0.000029
4860.827	1.625449	0.000029
4862.048	1.625455	0.000029
4863.269	1.625461	0.000029
4864.489	1.625466	0.000029
4865.71	1.625472	0.000029
4866.931	1.625478	0.000029
4868.152	1.625484	0.000029
4869.372	1.62549	0.000029
4870.593	1.625496	0.000029
4871.814	1.625502	0.000029
4873.034	1.625508	0.000029
4874.255	1.625514	0.000029
4875.476	1.62552	0.000029
4876.696	1.625526	0.000029
4877.917	1.625532	0.000029
4879.138	1.625538	0.000029
4880.359	1.625544	0.000029
4881.579	1.62555	0.000029
4882.8	1.625556	0.000029
4884.021	1.625561	0.000029
4885.241	1.625567	0.000029
4886.462	1.625573	0.000029
4887.683	1.625579	0.000028
4888.903	1.625585	0.000028
4890.124	1.625591	0.000028
4891.345	1.625597	0.000028
4892.566	1.625602	0.000028
4893.786	1.625608	0.000028
4895.007	1.625614	0.000028
4896.228	1.62562	0.000028
4897.448	1.625626	0.000028
4898.669	1.625632	0.000028
4899.89	1.625638	0.000028
4901.11	1.625643	0.000028
4902.331	1.625649	0.000028
4903.552	1.625655	0.000028
4904.773	1.625661	0.000028
4905.993	1.625667	0.000028
4907.214	1.625672	0.000028
4908.435	1.625678	0.000028
4909.655	1.625684	0.000028
4910.876	1.62569	0.000028
4912.097	1.625696	0.000028
4913.317	1.625701	0.000028
4914.538	1.625707	0.000028
4915.759	1.625713	0.000028
4916.98	1.625719	0.000028
4918.2	1.625725	0.000028
4919.421	1.62573	0.000028
4920.642	1.625736	0.000028
4921.862	1.625742	0.000028
4923.083	1.625748	0.000028
4924.304	1.625753	0.000028
4925.524	1.625759	0.000028
4926.745	1.625765	0.000028
4927.966	1.625771	0.000028
4929.187	1.625776	0.000028
4930.407	1.625782	0.000028
4931.628	1.625788	0.000028
4932.849	1.625793	0.000028
4934.069	1.625799	0.000028
4935.29	1.625805	0.000028
4936.511	1.625811	0.000028
4937.731	1.625816	0.000028
4938.952	1.625822	0.000028
4940.173	1.625828	0.000028
4941.394	1.625833	0.000028
4942.614	1.625839	0.000028
4943.835	1.625845	0.000028
4945.056	1.62585	0.000027
4946.276	1.625856	0.000027
4947.497	1.625862	0.000027
4948.718	1.625865	0.000027
4949.938	1.625867	0.000027
4951.159	1.625873	0.000027
4952.38	1.625879	0.000027
4953.601	1.625884	0.000027
4954.821	1.62589	0.000027
4956.042	1.625896	0.000027
4957.263	1.625901	0.000027
4958.483	1.625907	0.000027
4959.704	1.625912	0.000027
4960.925	1.625918	0.000027
4962.145	1.625924	0.000027
4963.366	1.625929	0.000027
4964.587	1.625935	0.000027
4965.808	1.625941	0.000027
4967.028	1.625946	0.000027
4968.249	1.625952	0.000027
4969.47	1.625957	0.000027
4970.69	1.625963	0.000027
4971.911	1.625968	0.000027
4973.132	1.625974	0.000027
4974.352	1.62598	0.000027
4975.573	1.625985	0.000027
4976.794	1.625991	0.000027
4978.015	1.625996	0.000027
4979.235	1.626002	0.000027
4980.456	1.626008	0.000027
4981.677	1.626013	0.000027
4982.897	1.626019	0.000027
4984.118	1.626024	0.000027
4985.339	1.62603	0.000027
4986.559	1.626035	0.000027
4987.78	1.626041	0.000027
4989.001	1.626046	0.000027
4990.222	1.626052	0.000027
4991.442	1.626057	0.000027
4992.663	1.626063	0.000027
4993.884	1.626068	0.000027
4995.104	1.626074	0.000027
4996.325	1.626079	0.000027
4997.546	1.626085	0.000027
4998.766	1.62609	0.000027
4999.987	1.626096	0.000026
